EEG 1,EEG 2,EEG 3,EEG 4,EEG 5,EEG 6,EEG 7,EEG 8,Accelerometer X,Accelerometer Y,Accelerometer Z,Gyroscope X,Gyroscope Y,Gyroscope Z,Battery Level,Counter,Validation Indicator
-153.272,3.714,-2.861,-12.853,-5.193,50.363,14.928,3.846,-0.090,1.017,-0.042,7.751,-140.594,44.891,100.000,17761.000,1.000
-159.608,-9.079,-19.410,-23.254,-12.504,39.383,-6.953,-10.207,-0.056,1.000,-0.049,7.690,-141.724,44.678,100.000,17762.000,1.000
-150.176,-16.888,-29.899,-28.668,-12.384,26.115,-23.621,-19.579,-0.020,0.987,-0.051,7.965,-142.181,44.128,100.000,17763.000,1.000
-129.660,-21.954,-36.246,-31.297,-9.508,9.097,-37.924,-29.040,0.018,0.968,-0.056,8.179,-142.303,43.640,100.000,17764.000,1.000
-106.333,-26.152,-40.595,-33.011,-8.974,-9.418,-53.465,-42.312,0.038,0.961,-0.059,8.240,-141.998,43.365,100.000,17765.000,1.000
-86.246,-29.107,-43.278,-34.223,-11.750,-24.591,-69.859,-58.546,0.075,0.947,-0.060,8.942,-140.686,42.572,100.000,17766.000,1.000
-71.051,-29.744,-43.546,-34.792,-15.410,-33.461,-82.898,-74.506,0.106,0.938,-0.063,10.010,-138.519,41.443,100.000,17767.000,1.000
-59.865,-28.138,-41.057,-34.834,-17.749,-36.805,-88.445,-88.028,0.128,0.940,-0.064,11.078,-135.803,40.253,100.000,17768.000,1.000
-51.450,-25.204,-36.112,-34.499,-18.170,-36.667,-85.204,-97.647,0.145,0.940,-0.066,12.024,-132.965,38.818,100.000,17769.000,1.000
-45.109,-21.846,-29.465,-33.843,-16.831,-33.754,-74.957,-100.766,0.155,0.948,-0.065,13.092,-129.730,37.384,100.000,17770.000,1.000
-41.116,-19.209,-22.615,-33.169,-14.287,-28.051,-61.879,-94.947,0.160,0.960,-0.059,13.824,-126.221,35.889,100.000,17771.000,1.000
-40.590,-18.696,-17.531,-32.938,-11.638,-20.472,-51.124,-80.609,0.159,0.970,-0.055,14.313,-122.711,34.424,100.000,17772.000,1.000
-43.979,-20.527,-15.192,-33.078,-9.672,-11.974,-46.171,-60.600,0.156,0.985,-0.050,14.587,-119.415,33.051,100.000,17773.000,1.000
-49.146,-22.520,-14.402,-32.525,-7.559,-2.026,-46.539,-37.411,0.150,0.995,-0.049,14.648,-116.119,31.677,100.000,17774.000,1.000
-51.440,-21.037,-12.245,-29.470,-2.870,9.758,-48.129,-12.159,0.148,1.004,-0.044,14.648,-113.007,30.273,100.000,17775.000,1.000
-46.343,-13.614,-6.065,-22.474,6.636,20.479,-46.339,13.859,0.144,1.015,-0.045,14.465,-110.016,28.992,100.000,17776.000,1.000
-32.440,-0.926,4.428,-11.960,20.755,24.007,-39.654,37.724,0.140,1.020,-0.046,14.008,-107.208,27.802,100.000,17777.000,1.000
-12.409,13.623,16.759,-0.434,36.085,15.447,-30.775,55.498,0.142,1.027,-0.048,13.519,-104.340,26.550,100.000,17778.000,1.000
8.482,25.900,27.259,9.096,47.468,-4.260,-24.742,63.896,0.143,1.033,-0.048,12.878,-101.562,25.513,100.000,17779.000,1.000
25.826,32.951,33.218,14.851,50.854,-28.624,-25.743,61.497,0.147,1.036,-0.051,12.146,-98.907,24.689,100.000,17780.000,1.000
39.398,34.146,34.335,16.798,46.047,-49.462,-34.391,49.703,0.151,1.033,-0.054,11.261,-95.978,24.017,100.000,17781.000,1.000
53.120,31.254,32.637,16.141,37.187,-60.257,-46.984,32.960,0.156,1.027,-0.054,10.590,-93.048,23.071,100.000,17782.000,1.000
71.542,27.012,30.702,14.368,29.936,-59.527,-57.655,16.721,0.158,1.019,-0.061,10.162,-90.118,22.278,100.000,17783.000,1.000
96.263,23.023,29.415,12.290,27.360,-53.289,-62.320,4.040,0.164,1.010,-0.060,9.949,-86.975,21.423,100.000,17784.000,1.000
124.883,19.115,27.550,9.878,28.294,-51.571,-61.103,-5.532,0.170,1.002,-0.060,10.010,-83.801,20.477,100.000,17785.000,1.000
151.913,14.620,23.527,6.997,29.423,-60.602,-57.163,-13.613,0.174,0.997,-0.062,10.071,-80.658,19.379,100.000,17786.000,1.000
170.467,9.432,16.979,3.864,28.235,-79.321,-54.112,-20.671,0.176,0.993,-0.063,10.254,-77.332,18.250,100.000,17787.000,1.000
176.319,4.020,8.959,0.884,24.279,-102.110,-54.531,-26.166,0.178,0.996,-0.063,10.559,-73.944,16.998,100.000,17788.000,1.000
172.805,-0.746,1.408,-1.505,18.928,-122.901,-59.180,-29.508,0.177,0.998,-0.060,10.956,-70.618,15.747,100.000,17789.000,1.000
168.816,-4.039,-3.800,-2.974,14.441,-138.312,-66.430,-30.251,0.175,1.000,-0.061,11.230,-67.200,14.465,100.000,17790.000,1.000
169.987,-5.557,-5.725,-3.364,12.781,-148.604,-72.435,-28.046,0.173,1.004,-0.056,11.444,-63.873,13.367,100.000,17791.000,1.000
174.846,-5.183,-4.359,-2.408,14.846,-155.021,-72.439,-22.921,0.169,1.009,-0.053,11.627,-60.547,12.268,100.000,17792.000,1.000
179.806,-2.606,-0.291,0.268,20.203,-157.069,-63.186,-15.656,0.165,1.016,-0.052,11.658,-57.465,10.956,100.000,17793.000,1.000
182.898,1.687,4.837,4.258,26.811,-154.273,-45.412,-8.043,0.161,1.021,-0.049,11.566,-54.382,9.857,100.000,17794.000,1.000
181.422,5.316,8.039,7.687,31.210,-149.285,-24.157,-2.580,0.154,1.026,-0.046,11.230,-51.575,8.881,100.000,17795.000,1.000
171.732,5.406,6.642,8.377,30.384,-146.353,-5.629,-0.884,0.145,1.028,-0.041,10.834,-48.737,7.935,100.000,17796.000,1.000
154.577,1.671,0.945,6.187,24.488,-146.719,7.170,-1.768,0.136,1.031,-0.040,10.437,-46.021,6.897,100.000,17797.000,1.000
136.880,-2.577,-5.206,3.840,17.518,-147.175,16.004,-1.579,0.124,1.031,-0.038,10.010,-43.518,5.890,100.000,17798.000,1.000
125.441,-2.769,-6.814,5.221,14.745,-143.021,24.871,2.961,0.110,1.033,-0.037,9.613,-41.046,4.913,100.000,17799.000,1.000
121.521,3.904,-0.813,12.865,19.334,-131.560,36.481,12.623,0.099,1.035,-0.034,9.064,-39.032,4.089,100.000,17800.000,1.000
122.751,17.118,12.389,26.368,30.775,-113.693,50.932,25.927,0.089,1.039,-0.034,8.453,-37.201,3.265,100.000,17801.000,1.000
126.387,33.493,29.042,42.268,45.146,-93.241,66.154,39.827,0.079,1.040,-0.033,7.874,-35.736,2.808,100.000,17802.000,1.000
129.206,47.663,43.443,55.376,56.468,-74.597,78.576,49.875,0.073,1.038,-0.034,7.294,-34.332,2.472,100.000,17803.000,1.000
128.078,54.414,50.297,60.977,59.246,-61.203,84.244,51.591,0.070,1.037,-0.034,6.653,-33.020,2.197,100.000,17804.000,1.000
122.045,51.301,47.352,57.155,51.782,-55.897,81.117,43.547,0.067,1.033,-0.036,6.348,-31.891,1.831,100.000,17805.000,1.000
111.449,39.869,36.445,45.867,37.421,-60.867,70.579,28.753,0.065,1.028,-0.041,6.012,-30.670,1.862,100.000,17806.000,1.000
95.725,24.307,21.676,31.544,21.616,-75.936,55.808,11.919,0.064,1.022,-0.045,5.859,-29.663,1.770,100.000,17807.000,1.000
75.049,9.112,6.885,18.533,8.171,-96.947,39.392,-3.602,0.069,1.009,-0.051,5.768,-28.290,1.526,100.000,17808.000,1.000
53.191,-2.397,-5.282,9.427,-1.356,-116.470,23.430,-15.721,0.075,1.002,-0.048,6.012,-27.191,1.465,100.000,17809.000,1.000
35.070,-8.844,-13.382,4.714,-6.508,-126.912,10.479,-22.862,0.081,0.996,-0.046,6.134,-25.909,1.312,100.000,17810.000,1.000
21.741,-10.948,-17.214,3.408,-7.701,-123.872,2.913,-24.792,0.085,0.991,-0.050,6.348,-24.628,1.251,100.000,17811.000,1.000
10.947,-10.636,-17.542,3.988,-6.259,-107.812,1.573,-23.095,0.084,0.986,-0.050,6.622,-23.132,1.190,100.000,17812.000,1.000
1.837,-9.702,-15.495,4.951,-3.617,-83.389,5.584,-19.817,0.081,0.987,-0.050,6.927,-21.759,1.160,100.000,17813.000,1.000
-5.145,-9.326,-12.349,5.102,-0.907,-57.079,12.839,-16.313,0.074,0.987,-0.048,7.172,-20.355,0.916,100.000,17814.000,1.000
-13.001,-10.543,-9.802,3.768,0.300,-34.939,20.087,-13.938,0.068,0.989,-0.047,7.782,-19.043,0.610,100.000,17815.000,1.000
-27.179,-14.005,-9.441,0.983,-1.671,-20.994,23.870,-14.063,0.060,0.994,-0.046,8.209,-17.853,0.244,100.000,17816.000,1.000
-47.763,-18.696,-11.163,-2.244,-6.319,-15.423,22.986,-15.810,0.052,1.001,-0.043,8.545,-16.754,-0.061,100.000,17817.000,1.000
-67.161,-21.747,-12.661,-4.055,-10.194,-13.892,19.654,-15.392,0.044,1.008,-0.043,8.850,-15.839,-0.427,100.000,17818.000,1.000
-77.959,-20.358,-11.183,-2.606,-9.784,-9.980,17.350,-9.615,0.038,1.013,-0.041,9.155,-15.106,-0.763,100.000,17819.000,1.000
-79.558,-13.783,-5.652,2.729,-4.653,0.963,17.857,0.804,0.028,1.019,-0.042,9.277,-14.587,-1.190,100.000,17820.000,1.000
-75.747,-3.653,2.834,10.601,2.790,19.647,20.671,12.357,0.018,1.025,-0.042,9.308,-13.916,-1.556,100.000,17821.000,1.000
-70.109,6.871,11.778,18.019,9.500,43.164,24.071,21.725,0.012,1.031,-0.042,9.186,-13.519,-1.862,100.000,17822.000,1.000
-65.786,14.391,18.446,22.014,13.115,66.981,25.889,26.707,0.008,1.037,-0.041,9.033,-13.245,-2.106,100.000,17823.000,1.000
-65.922,16.946,21.212,21.630,12.320,87.356,24.236,25.964,0.003,1.038,-0.042,8.972,-13.062,-2.411,100.000,17824.000,1.000
-71.491,15.060,20.281,18.321,7.189,102.680,18.776,19.852,0.001,1.040,-0.040,8.667,-12.848,-2.686,100.000,17825.000,1.000
-80.056,10.850,16.997,14.240,-0.801,112.992,11.223,11.089,0.003,1.040,-0.040,8.453,-12.726,-2.747,100.000,17826.000,1.000
-88.083,5.969,12.358,10.257,-9.713,118.612,3.801,3.010,0.003,1.041,-0.040,8.209,-12.604,-2.869,100.000,17827.000,1.000
-93.764,0.719,6.461,5.774,-18.325,119.699,-2.823,-3.051,0.003,1.040,-0.040,7.874,-12.451,-2.960,100.000,17828.000,1.000
-96.953,-4.949,-0.610,0.193,-26.102,117.225,-9.604,-7.705,0.005,1.037,-0.038,7.690,-12.238,-2.930,100.000,17829.000,1.000
-97.545,-10.360,-7.924,-5.961,-32.513,113.765,-17.576,-11.248,0.005,1.035,-0.043,7.721,-12.085,-2.838,100.000,17830.000,1.000
-95.638,-14.608,-14.271,-11.419,-37.432,112.444,-27.027,-13.119,0.006,1.031,-0.047,7.690,-11.749,-2.777,100.000,17831.000,1.000
-92.914,-17.725,-19.273,-15.275,-41.950,114.634,-37.699,-13.553,0.005,1.029,-0.049,7.660,-11.414,-2.808,100.000,17832.000,1.000
-91.949,-20.520,-23.293,-17.470,-47.403,119.095,-48.578,-13.827,-0.001,1.029,-0.047,7.751,-11.078,-2.625,100.000,17833.000,1.000
-93.330,-23.067,-26.198,-18.252,-53.257,123.991,-57.252,-14.151,-0.004,1.029,-0.046,7.812,-10.742,-2.563,100.000,17834.000,1.000
-94.470,-23.983,-26.775,-17.448,-56.797,129.210,-60.478,-12.651,-0.007,1.030,-0.046,7.904,-10.437,-2.441,100.000,17835.000,1.000
-92.326,-21.702,-23.810,-14.563,-55.486,135.874,-56.511,-7.478,-0.011,1.028,-0.048,8.148,-10.223,-2.380,100.000,17836.000,1.000
-86.781,-16.291,-17.696,-9.763,-49.455,144.065,-47.012,0.690,-0.015,1.030,-0.047,8.148,-9.857,-2.289,100.000,17837.000,1.000
-80.342,-9.662,-10.694,-4.497,-41.420,151.499,-36.135,9.020,-0.018,1.033,-0.045,8.209,-9.705,-2.136,100.000,17838.000,1.000
-75.176,-4.241,-5.506,-0.763,-34.487,154.021,-27.586,14.885,-0.020,1.035,-0.049,8.057,-9.521,-1.984,100.000,17839.000,1.000
-71.829,-1.635,-3.539,0.323,-30.445,148.118,-22.857,17.167,-0.021,1.035,-0.049,8.118,-9.430,-1.862,100.000,17840.000,1.000
-70.321,-2.058,-4.338,-0.806,-29.656,134.787,-21.859,16.105,-0.023,1.035,-0.050,8.148,-9.338,-1.740,100.000,17841.000,1.000
-70.796,-4.300,-6.342,-2.764,-31.502,120.863,-24.081,13.118,-0.027,1.035,-0.053,8.087,-9.277,-1.617,100.000,17842.000,1.000
-73.039,-6.442,-8.146,-4.401,-34.708,114.596,-28.834,10.247,-0.028,1.035,-0.054,8.026,-9.155,-1.434,100.000,17843.000,1.000
-76.264,-7.139,-9.264,-5.541,-37.803,118.910,-35.001,8.622,-0.029,1.034,-0.056,7.965,-9.125,-1.434,100.000,17844.000,1.000
-79.215,-6.097,-9.696,-6.517,-39.375,129.304,-40.708,7.896,-0.031,1.035,-0.049,7.812,-9.033,-1.221,100.000,17845.000,1.000
-80.182,-3.312,-8.950,-7.122,-38.012,138.044,-43.215,7.650,-0.033,1.034,-0.053,7.843,-8.881,-1.129,100.000,17846.000,1.000
-77.745,1.277,-6.134,-6.602,-32.866,139.801,-40.151,8.276,-0.036,1.032,-0.055,7.751,-8.972,-1.068,100.000,17847.000,1.000
-72.142,7.000,-1.190,-4.775,-24.924,134.166,-31.722,9.839,-0.035,1.026,-0.054,7.660,-9.064,-0.916,100.000,17848.000,1.000
-65.526,12.124,4.475,-2.595,-17.193,124.651,-21.422,11.080,-0.035,1.019,-0.058,7.599,-9.094,-0.916,100.000,17849.000,1.000
-60.316,14.975,8.919,-1.355,-12.756,116.017,-13.882,10.566,-0.029,1.013,-0.061,7.660,-9.186,-0.824,100.000,17850.000,1.000
-57.316,15.203,11.094,-1.521,-12.378,111.714,-11.586,8.543,-0.020,1.004,-0.062,7.782,-9.277,-0.732,100.000,17851.000,1.000
-56.526,13.516,10.974,-2.599,-14.624,112.377,-13.832,6.349,-0.011,1.000,-0.067,8.057,-9.155,-0.488,100.000,17852.000,1.000
-60.266,10.497,8.578,-3.996,-18.343,115.944,-18.762,3.784,-0.001,0.998,-0.068,8.270,-9.003,-0.275,100.000,17853.000,1.000
-72.426,6.479,3.979,-5.462,-23.509,119.505,-25.018,-0.779,0.010,0.996,-0.068,8.575,-8.667,-0.031,100.000,17854.000,1.000
-91.472,2.475,-1.482,-6.661,-29.134,121.425,-30.877,-6.579,0.022,0.992,-0.065,8.759,-8.148,0.244,100.000,17855.000,1.000
-107.682,-0.109,-5.449,-7.188,-32.614,121.358,-33.867,-9.514,0.029,0.991,-0.069,9.003,-7.599,0.671,100.000,17856.000,1.000
-112.219,-1.162,-6.780,-7.301,-32.501,118.110,-32.860,-6.990,0.038,0.991,-0.070,9.369,-6.866,1.190,100.000,17857.000,1.000
-105.966,-2.035,-6.383,-7.825,-29.996,108.922,-29.181,-1.234,0.042,0.993,-0.069,9.552,-6.134,1.709,100.000,17858.000,1.000
-95.279,-3.496,-5.344,-8.927,-26.537,92.410,-24.389,4.166,0.045,0.991,-0.070,9.705,-5.310,2.258,100.000,17859.000,1.000
-83.298,-4.690,-3.564,-9.726,-21.895,71.459,-18.380,8.309,0.047,0.988,-0.070,9.857,-4.700,2.716,100.000,17860.000,1.000
-70.732,-4.796,-1.007,-9.540,-16.017,51.471,-11.030,11.200,0.051,0.989,-0.073,10.101,-3.845,3.235,100.000,17861.000,1.000
-61.471,-4.678,0.861,-8.923,-11.075,35.935,-4.531,10.457,0.052,0.989,-0.076,10.071,-3.052,3.693,100.000,17862.000,1.000
-60.669,-5.971,0.094,-9.038,-9.824,24.971,-2.295,3.110,0.055,0.988,-0.077,10.071,-2.411,4.150,100.000,17863.000,1.000
-67.755,-8.981,-3.548,-10.277,-12.520,17.588,-5.586,-10.203,0.057,0.985,-0.078,10.132,-1.678,4.486,100.000,17864.000,1.000
-76.228,-12.306,-8.247,-11.793,-16.731,13.462,-12.239,-25.161,0.059,0.985,-0.079,10.193,-0.854,4.822,100.000,17865.000,1.000
-80.693,-14.309,-11.817,-12.290,-19.821,12.270,-18.681,-37.333,0.057,0.986,-0.082,10.437,-0.031,5.035,100.000,17866.000,1.000
-80.704,-14.333,-13.214,-11.082,-20.654,12.551,-22.454,-44.396,0.060,0.990,-0.081,10.406,0.549,5.310,100.000,17867.000,1.000
-78.046,-12.725,-12.631,-8.425,-19.371,11.942,-23.090,-45.861,0.061,0.992,-0.080,10.498,1.099,5.371,100.000,17868.000,1.000
-73.911,-10.463,-10.989,-5.201,-16.825,8.381,-21.690,-42.794,0.059,0.994,-0.082,10.315,1.648,5.463,100.000,17869.000,1.000
-69.394,-8.868,-9.626,-2.525,-14.523,0.933,-20.163,-37.995,0.055,0.999,-0.077,10.315,2.289,5.432,100.000,17870.000,1.000
-66.261,-9.233,-9.949,-1.431,-14.338,-9.936,-20.341,-34.869,0.056,1.004,-0.079,9.918,2.747,5.341,100.000,17871.000,1.000
-65.942,-12.172,-12.665,-2.405,-17.468,-22.417,-23.050,-35.172,0.053,1.006,-0.082,9.705,3.296,5.219,100.000,17872.000,1.000
-68.169,-16.938,-17.073,-4.902,-23.306,-34.118,-27.457,-37.929,0.051,1.012,-0.082,9.613,3.754,5.005,100.000,17873.000,1.000
-70.894,-21.408,-21.282,-7.480,-29.485,-43.172,-31.302,-40.612,0.048,1.015,-0.084,9.247,4.181,4.791,100.000,17874.000,1.000
-71.827,-23.217,-23.389,-8.684,-33.347,-48.695,-32.229,-41.168,0.047,1.016,-0.085,8.850,4.578,4.486,100.000,17875.000,1.000
-70.450,-21.399,-22.785,-8.034,-33.814,-50.554,-29.577,-39.295,0.046,1.019,-0.083,8.484,4.852,3.998,100.000,17876.000,1.000
-68.366,-17.152,-20.570,-6.310,-32.171,-49.186,-25.189,-36.446,0.045,1.019,-0.084,8.301,5.005,3.815,100.000,17877.000,1.000
-67.329,-12.814,-18.500,-4.755,-30.787,-45.648,-21.908,-34.487,0.043,1.020,-0.085,7.721,5.157,3.387,100.000,17878.000,1.000
-67.262,-9.938,-17.369,-3.934,-30.689,-41.370,-20.840,-33.893,0.042,1.020,-0.085,7.446,5.463,2.838,100.000,17879.000,1.000
-66.546,-8.530,-16.700,-3.586,-30.728,-37.505,-20.507,-33.469,0.044,1.020,-0.088,7.172,5.676,2.258,100.000,17880.000,1.000
-63.788,-7.951,-15.907,-3.370,-29.292,-34.902,-19.001,-31.972,0.044,1.018,-0.088,6.683,5.829,1.801,100.000,17881.000,1.000
-59.013,-8.072,-15.325,-3.334,-26.510,-34.766,-16.657,-29.555,0.046,1.013,-0.094,6.439,6.042,1.251,100.000,17882.000,1.000
-53.609,-9.483,-16.099,-3.902,-24.562,-38.250,-16.196,-27.501,0.050,1.013,-0.096,6.104,6.378,0.793,100.000,17883.000,1.000
-49.016,-12.582,-19.018,-5.524,-25.432,-44.802,-19.746,-26.551,0.054,1.011,-0.095,6.042,6.775,0.275,100.000,17884.000,1.000
-44.653,-16.380,-23.156,-7.973,-28.107,-51.746,-25.648,-25.459,0.056,1.011,-0.099,5.859,7.324,-0.244,100.000,17885.000,1.000
-37.131,-18.574,-25.879,-10.043,-28.536,-56.090,-28.887,-21.411,0.059,1.011,-0.099,5.829,7.874,-0.793,100.000,17886.000,1.000
-22.529,-17.218,-24.672,-10.294,-22.895,-56.575,-25.092,-12.217,0.061,1.011,-0.100,5.707,8.606,-1.282,100.000,17887.000,1.000
-0.406,-12.294,-19.163,-8.186,-10.952,-54.282,-14.206,1.574,0.060,1.011,-0.104,5.554,9.308,-1.617,100.000,17888.000,1.000
24.938,-5.569,-11.322,-4.438,3.826,-51.583,-0.370,16.769,0.058,1.010,-0.104,5.493,9.918,-2.167,100.000,17889.000,1.000
48.340,0.917,-3.673,-0.276,17.430,-50.234,11.717,30.112,0.055,1.015,-0.105,5.432,10.712,-2.655,100.000,17890.000,1.000
68.373,6.118,2.541,3.521,28.251,-50.319,20.147,40.646,0.052,1.016,-0.107,5.249,11.322,-3.357,100.000,17891.000,1.000
86.906,9.955,7.361,6.646,36.895,-50.860,25.720,49.137,0.050,1.018,-0.106,5.157,11.932,-3.876,100.000,17892.000,1.000
105.368,12.619,10.953,8.722,44.054,-50.665,29.556,55.917,0.048,1.018,-0.106,4.974,12.512,-4.456,100.000,17893.000,1.000
123.924,14.370,13.281,9.458,49.661,-48.522,31.956,60.615,0.044,1.016,-0.106,4.883,13.123,-5.096,100.000,17894.000,1.000
143.640,15.720,14.647,9.142,53.818,-43.951,33.217,63.520,0.042,1.016,-0.107,4.639,13.733,-5.798,100.000,17895.000,1.000
166.366,17.201,15.686,8.420,57.280,-38.150,34.196,65.645,0.040,1.015,-0.107,4.456,14.374,-6.500,100.000,17896.000,1.000
192.256,18.972,16.881,7.784,60.919,-33.446,35.944,67.667,0.039,1.014,-0.110,4.272,14.923,-7.294,100.000,17897.000,1.000
220.011,20.856,18.553,7.545,65.572,-31.976,39.670,69.932,0.041,1.013,-0.111,4.150,15.564,-8.087,100.000,17898.000,1.000
249.714,22.671,21.162,8.034,72.343,-34.864,46.953,73.324,0.041,1.010,-0.112,4.059,16.357,-8.911,100.000,17899.000,1.000
282.479,24.329,25.071,9.470,81.983,-41.773,58.805,78.922,0.040,1.008,-0.112,3.967,16.998,-9.613,100.000,17900.000,1.000
316.735,25.689,29.906,11.539,93.533,-50.924,74.009,86.454,0.044,1.006,-0.112,3.937,17.731,-10.315,100.000,17901.000,1.000
347.558,26.558,34.486,13.341,104.079,-59.715,88.803,93.761,0.049,1.002,-0.116,3.906,18.768,-10.803,100.000,17902.000,1.000
370.617,26.877,37.603,14.010,110.243,-65.427,98.578,98.213,0.057,1.001,-0.117,3.845,19.867,-11.353,100.000,17903.000,1.000
384.976,26.770,38.786,13.346,110.175,-65.722,100.360,98.637,0.061,1.001,-0.122,3.937,20.905,-11.902,100.000,17904.000,1.000
392.022,26.458,38.416,11.831,104.743,-59.253,94.672,96.040,0.065,1.002,-0.124,4.028,22.217,-12.177,100.000,17905.000,1.000
394.025,26.244,37.439,10.240,97.278,-46.935,85.578,92.832,0.065,1.003,-0.128,4.120,23.621,-12.451,100.000,17906.000,1.000
394.292,26.397,36.926,9.180,91.951,-32.744,78.607,91.388,0.066,1.005,-0.131,4.028,25.024,-12.604,100.000,17907.000,1.000
396.369,26.880,37.568,8.745,91.612,-21.942,77.856,92.873,0.067,1.009,-0.131,3.967,26.520,-12.634,100.000,17908.000,1.000
401.068,27.247,39.252,8.559,96.186,-17.804,83.939,96.720,0.065,1.012,-0.131,3.876,27.985,-12.848,100.000,17909.000,1.000
404.894,26.897,41.094,8.149,102.590,-20.168,93.783,100.899,0.061,1.013,-0.130,3.784,29.419,-13.031,100.000,17910.000,1.000
403.091,25.618,42.165,7.366,106.773,-26.227,102.658,103.147,0.058,1.015,-0.130,3.723,31.036,-13.153,100.000,17911.000,1.000
393.922,23.795,42.155,6.427,106.373,-32.043,107.053,102.317,0.055,1.014,-0.135,3.479,32.440,-13.184,100.000,17912.000,1.000
378.912,21.978,41.143,5.602,101.468,-34.242,106.026,98.519,0.058,1.013,-0.135,3.204,33.844,-13.245,100.000,17913.000,1.000
360.245,20.340,39.084,4.958,93.395,-31.626,100.583,92.301,0.058,1.012,-0.139,3.082,35.309,-13.489,100.000,17914.000,1.000
339.712,18.506,35.776,4.238,83.636,-25.913,92.507,84.145,0.059,1.011,-0.139,2.930,36.835,-13.733,100.000,17915.000,1.000
319.471,16.020,31.437,3.141,73.776,-20.749,83.854,74.801,0.061,1.012,-0.139,2.960,38.574,-13.977,100.000,17916.000,1.000
301.679,13.086,27.092,1.864,65.653,-18.967,76.817,65.615,0.061,1.012,-0.139,2.563,40.344,-14.099,100.000,17917.000,1.000
286.503,10.444,23.896,0.986,60.447,-20.115,72.803,57.768,0.058,1.011,-0.139,2.136,41.992,-14.221,100.000,17918.000,1.000
271.838,8.475,22.075,0.750,57.690,-21.175,71.454,51.138,0.056,1.011,-0.144,1.923,43.732,-14.313,100.000,17919.000,1.000
255.670,6.842,20.856,0.776,55.696,-20.117,71.156,44.354,0.052,1.013,-0.145,1.678,45.380,-14.404,100.000,17920.000,1.000
237.277,4.980,19.242,0.502,52.803,-17.859,70.344,36.030,0.047,1.016,-0.141,1.404,47.028,-14.435,100.000,17921.000,1.000
215.584,2.385,16.401,-0.476,47.905,-16.959,67.886,25.634,0.042,1.020,-0.143,0.916,48.523,-14.435,100.000,17922.000,1.000
188.272,-1.594,11.493,-2.566,40.209,-19.495,62.647,13.298,0.039,1.023,-0.143,0.305,49.957,-14.435,100.000,17923.000,1.000
153.803,-7.375,4.042,-6.034,29.496,-25.658,53.898,-0.285,0.035,1.029,-0.135,-0.336,51.422,-14.496,100.000,17924.000,1.000
113.185,-14.099,-5.036,-10.233,17.038,-33.315,42.652,-13.401,0.028,1.031,-0.131,-1.160,52.826,-14.343,100.000,17925.000,1.000
70.048,-19.224,-13.082,-13.260,5.658,-38.790,31.986,-23.633,0.017,1.031,-0.130,-2.014,53.986,-14.130,100.000,17926.000,1.000
30.215,-19.718,-16.881,-12.858,-1.740,-38.601,25.351,-29.273,0.006,1.030,-0.132,-3.082,54.932,-13.977,100.000,17927.000,1.000
-1.165,-14.676,-15.076,-8.327,-4.411,-31.778,23.821,-30.710,-0.007,1.029,-0.132,-4.028,55.786,-13.977,100.000,17928.000,1.000
-24.654,-7.027,-9.864,-1.775,-5.048,-21.183,24.496,-30.780,-0.016,1.025,-0.130,-4.761,56.427,-13.794,100.000,17929.000,1.000
-46.968,-1.731,-5.675,3.136,-8.125,-12.097,22.348,-33.229,-0.027,1.023,-0.129,-5.341,56.824,-13.947,100.000,17930.000,1.000
-74.347,-1.725,-5.549,4.155,-16.174,-8.519,14.439,-40.005,-0.036,1.018,-0.129,-5.981,56.976,-14.038,100.000,17931.000,1.000
-106.681,-5.784,-8.892,2.045,-27.798,-10.102,2.305,-49.883,-0.047,1.011,-0.127,-6.561,57.129,-14.160,100.000,17932.000,1.000
-139.115,-10.060,-12.573,-0.488,-39.212,-12.712,-9.604,-59.624,-0.053,1.011,-0.126,-6.927,57.068,-14.343,100.000,17933.000,1.000
-167.668,-11.246,-13.802,-1.013,-47.382,-12.013,-17.417,-66.377,-0.060,1.012,-0.125,-7.172,56.885,-14.435,100.000,17934.000,1.000
-191.963,-8.678,-12.114,1.150,-52.056,-6.442,-20.390,-69.556,-0.066,1.014,-0.122,-7.538,56.427,-14.709,100.000,17935.000,1.000
-214.007,-4.418,-9.426,4.746,-55.576,2.764,-21.278,-71.260,-0.069,1.015,-0.120,-7.874,55.878,-14.862,100.000,17936.000,1.000
-236.319,-1.764,-8.664,7.388,-60.987,13.450,-24.536,-74.957,-0.072,1.013,-0.117,-8.362,55.328,-14.954,100.000,17937.000,1.000
-260.941,-3.062,-11.861,7.001,-69.833,23.814,-33.373,-82.983,-0.072,1.010,-0.112,-8.728,54.565,-14.832,100.000,17938.000,1.000
-288.455,-8.320,-18.925,3.055,-81.210,31.923,-47.713,-94.880,-0.071,1.006,-0.111,-9.155,53.925,-14.679,100.000,17939.000,1.000
-317.027,-15.661,-27.960,-3.343,-92.667,34.885,-64.594,-108.134,-0.073,1.004,-0.106,-9.338,53.436,-14.526,100.000,17940.000,1.000
-342.641,-22.777,-36.561,-10.268,-101.869,29.818,-80.139,-119.965,-0.075,1.002,-0.105,-9.430,52.490,-14.160,100.000,17941.000,1.000
-361.259,-27.986,-42.875,-15.917,-107.466,15.947,-91.153,-128.244,-0.076,1.002,-0.103,-9.399,51.666,-13.794,100.000,17942.000,1.000
-372.049,-30.526,-45.877,-19.152,-108.759,-4.711,-95.584,-131.606,-0.077,1.003,-0.104,-9.338,50.629,-13.306,100.000,17943.000,1.000
-378.177,-30.235,-45.197,-19.456,-105.369,-28.255,-92.727,-129.883,-0.079,1.000,-0.103,-9.277,49.438,-12.787,100.000,17944.000,1.000
-383.671,-27.332,-41.280,-16.871,-98.088,-50.169,-84.108,-124.759,-0.081,0.997,-0.100,-8.972,48.370,-12.299,100.000,17945.000,1.000
-390.795,-22.844,-35.849,-12.275,-89.855,-66.405,-74.026,-119.252,-0.081,0.996,-0.095,-8.698,47.424,-11.749,100.000,17946.000,1.000
-400.936,-18.797,-31.487,-7.334,-84.632,-74.039,-67.831,-115.644,-0.079,0.996,-0.093,-8.270,46.204,-11.169,100.000,17947.000,1.000
-415.491,-17.206,-30.196,-3.705,-84.851,-71.193,-68.918,-113.994,-0.080,1.000,-0.093,-7.721,45.044,-10.468,100.000,17948.000,1.000
-433.717,-18.567,-32.213,-2.138,-90.142,-56.710,-77.339,-112.990,-0.082,1.002,-0.089,-7.507,43.793,-9.644,100.000,17949.000,1.000
-450.940,-21.330,-35.907,-2.229,-97.771,-31.206,-90.233,-111.410,-0.083,1.002,-0.090,-7.019,42.572,-8.972,100.000,17950.000,1.000
-461.366,-23.059,-38.803,-2.925,-103.877,0.864,-103.020,-108.356,-0.083,1.006,-0.090,-6.531,41.351,-8.118,100.000,17951.000,1.000
-462.715,-22.318,-39.200,-3.381,-105.496,31.465,-111.623,-103.438,-0.086,1.009,-0.081,-6.104,40.161,-7.538,100.000,17952.000,1.000
-456.609,-19.429,-37.068,-3.437,-102.211,52.587,-114.603,-97.519,-0.087,1.011,-0.079,-5.890,38.879,-6.836,100.000,17953.000,1.000
-445.277,-15.733,-33.568,-3.379,-95.674,59.662,-112.891,-92.322,-0.087,1.014,-0.078,-5.676,37.567,-6.134,100.000,17954.000,1.000
-430.025,-12.629,-30.123,-3.573,-87.826,52.250,-107.901,-88.992,-0.089,1.013,-0.077,-5.463,36.285,-5.463,100.000,17955.000,1.000
-412.283,-11.119,-27.862,-4.406,-79.964,33.272,-100.681,-87.541,-0.091,1.016,-0.078,-5.157,34.821,-4.944,100.000,17956.000,1.000
-393.428,-11.328,-27.117,-6.031,-72.686,8.262,-92.141,-87.365,-0.094,1.018,-0.076,-4.852,33.356,-4.456,100.000,17957.000,1.000
-373.093,-12.004,-26.855,-7.757,-65.580,-15.934,-82.747,-87.385,-0.097,1.017,-0.069,-4.639,31.982,-3.815,100.000,17958.000,1.000
-349.403,-10.986,-24.967,-7.998,-57.191,-33.489,-72.029,-85.893,-0.102,1.018,-0.067,-4.456,30.579,-3.387,100.000,17959.000,1.000
-321.555,-6.736,-19.830,-5.331,-46.393,-41.542,-59.378,-81.252,-0.105,1.019,-0.069,-4.364,28.961,-3.021,100.000,17960.000,1.000
-291.257,0.413,-11.735,0.323,-34.005,-40.591,-45.433,-73.099,-0.109,1.019,-0.066,-4.181,27.252,-2.747,100.000,17961.000,1.000
-261.302,8.526,-2.697,7.587,-22.474,-33.493,-32.101,-62.618,-0.110,1.020,-0.065,-4.059,25.452,-2.441,100.000,17962.000,1.000
-233.573,15.330,4.934,14.461,-13.915,-23.947,-21.230,-51.691,-0.109,1.021,-0.063,-3.906,23.651,-2.441,100.000,17963.000,1.000
-208.722,19.145,9.509,19.097,-8.854,-15.666,-13.693,-42.055,-0.108,1.019,-0.059,-3.876,21.942,-2.289,100.000,17964.000,1.000
-186.921,19.224,10.353,20.281,-6.774,-11.794,-9.623,-34.981,-0.104,1.017,-0.056,-3.845,20.203,-2.197,100.000,17965.000,1.000
-168.166,15.912,7.784,17.803,-7.195,-13.663,-8.805,-31.079,-0.095,1.015,-0.060,-3.723,18.585,-2.045,100.000,17966.000,1.000
-152.141,10.435,2.935,12.463,-9.940,-20.069,-10.689,-30.173,-0.085,1.013,-0.058,-3.662,17.090,-1.892,100.000,17967.000,1.000
-138.164,4.244,-2.706,5.677,-14.587,-28.225,-14.274,-31.294,-0.078,1.011,-0.064,-3.662,15.686,-1.892,100.000,17968.000,1.000
-125.013,-1.400,-7.687,-0.926,-19.788,-35.331,-18.047,-32.690,-0.070,1.010,-0.062,-3.479,14.526,-1.831,100.000,17969.000,1.000
-110.737,-5.467,-10.854,-5.940,-23.315,-39.354,-20.224,-32.189,-0.063,1.010,-0.063,-3.448,13.550,-1.709,100.000,17970.000,1.000
-93.314,-7.369,-11.664,-8.678,-23.138,-39.269,-19.582,-28.174,-0.057,1.011,-0.062,-3.387,12.634,-1.587,100.000,17971.000,1.000
-72.082,-7.217,-10.351,-9.230,-18.660,-35.285,-16.177,-20.378,-0.052,1.011,-0.064,-3.296,11.841,-1.556,100.000,17972.000,1.000
-48.451,-5.651,-7.662,-8.119,-11.032,-28.692,-11.076,-9.860,-0.048,1.008,-0.064,-3.143,11.139,-1.343,100.000,17973.000,1.000
-25.416,-3.747,-4.714,-6.308,-2.679,-21.613,-5.836,1.260,-0.040,1.008,-0.062,-2.991,10.498,-1.312,100.000,17974.000,1.000
-6.587,-3.340,-3.228,-5.580,3.342,-17.283,-2.582,10.073,-0.035,1.005,-0.066,-2.960,10.071,-1.251,100.000,17975.000,1.000
5.496,-6.486,-4.989,-7.968,4.605,-19.251,-3.538,14.059,-0.029,1.001,-0.067,-2.808,9.583,-1.129,100.000,17976.000,1.000
11.710,-13.195,-9.809,-13.659,1.420,-27.785,-9.024,13.442,-0.025,1.001,-0.068,-2.625,9.216,-1.038,100.000,17977.000,1.000
17.211,-19.516,-13.884,-19.316,-1.947,-36.830,-15.634,12.666,-0.025,1.002,-0.071,-2.472,8.789,-0.916,100.000,17978.000,1.000
28.792,-19.253,-11.480,-19.648,0.741,-37.178,-17.449,18.160,-0.023,1.001,-0.072,-2.350,8.545,-0.824,100.000,17979.000,1.000
50.044,-8.887,0.372,-11.726,12.975,-24.009,-10.308,33.199,-0.023,1.003,-0.074,-2.167,8.148,-0.854,100.000,17980.000,1.000
78.436,9.003,18.699,2.221,32.195,-0.898,4.658,54.805,-0.022,1.002,-0.068,-2.014,7.965,-0.763,100.000,17981.000,1.000
106.764,26.994,36.023,16.058,51.172,22.537,21.603,75.539,-0.022,1.002,-0.070,-1.923,7.721,-0.702,100.000,17982.000,1.000
127.452,37.251,44.863,23.524,62.582,36.477,33.782,87.990,-0.020,1.000,-0.072,-1.984,7.690,-0.793,100.000,17983.000,1.000
137.074,36.053,42.079,21.886,63.243,36.477,37.559,88.769,-0.020,1.002,-0.077,-1.801,7.446,-1.007,100.000,17984.000,1.000
138.419,25.579,30.275,13.121,55.399,25.184,34.013,79.918,-0.017,1.003,-0.074,-1.770,7.202,-1.221,100.000,17985.000,1.000
138.026,11.712,15.351,1.850,44.453,9.623,27.297,66.979,-0.014,1.003,-0.073,-1.648,7.080,-1.343,100.000,17986.000,1.000
141.159,0.075,2.754,-7.660,35.370,-3.205,21.562,55.649,-0.009,1.001,-0.075,-1.587,7.050,-1.587,100.000,17987.000,1.000
149.072,-6.525,-4.611,-13.054,30.483,-9.607,18.878,49.404,-0.006,0.999,-0.078,-1.465,6.927,-1.892,100.000,17988.000,1.000
160.167,-8.314,-6.535,-14.090,29.494,-10.120,19.153,48.662,-0.003,1.000,-0.076,-1.434,6.897,-2.136,100.000,17989.000,1.000
172.353,-7.283,-4.637,-12.195,30.782,-8.352,21.436,51.516,0.002,0.999,-0.080,-1.221,6.927,-2.502,100.000,17990.000,1.000
183.990,-5.634,-1.183,-9.477,32.687,-8.633,24.877,55.533,0.005,0.998,-0.081,-1.251,7.324,-2.869,100.000,17991.000,1.000
193.629,-4.872,1.791,-7.647,33.918,-13.661,28.354,58.869,0.010,0.996,-0.073,-1.068,7.629,-3.235,100.000,17992.000,1.000
200.143,-5.598,2.935,-7.549,33.659,-23.495,30.250,60.218,0.012,0.996,-0.073,-0.885,7.996,-3.662,100.000,17993.000,1.000
203.923,-7.496,1.981,-9.178,32.202,-35.939,29.825,59.174,0.014,0.995,-0.074,-0.763,8.392,-3.998,100.000,17994.000,1.000
207.657,-9.279,0.037,-11.588,31.398,-47.315,28.727,57.038,0.017,0.996,-0.074,-0.671,8.911,-4.425,100.000,17995.000,1.000
214.664,-8.980,-0.735,-12.853,33.686,-53.255,30.263,56.212,0.017,0.997,-0.077,-0.641,9.460,-4.913,100.000,17996.000,1.000
225.898,-4.830,1.886,-10.755,40.325,-50.110,36.830,58.400,0.013,0.998,-0.081,-0.427,10.040,-5.280,100.000,17997.000,1.000
239.398,3.689,9.019,-4.072,50.691,-36.929,48.095,64.013,0.012,1.003,-0.082,-0.305,10.437,-5.615,100.000,17998.000,1.000
252.574,15.227,19.848,6.406,62.872,-16.539,61.458,72.863,0.009,1.009,-0.079,-0.122,10.803,-5.951,100.000,17999.000,1.000
263.237,26.627,31.387,17.739,74.170,5.316,73.526,83.754,0.008,1.014,-0.080,-0.122,11.169,-6.348,100.000,18000.000,1.000
268.439,33.981,39.440,25.928,81.342,22.319,81.062,93.339,0.004,1.018,-0.083,-0.183,11.566,-6.683,100.000,18001.000,1.000
265.391,34.818,41.012,28.154,81.986,30.332,82.084,97.430,0.003,1.021,-0.078,-0.336,11.993,-7.019,100.000,18002.000,1.000
254.783,29.735,36.336,24.487,76.376,28.848,77.167,94.323,-0.001,1.023,-0.081,-0.458,12.146,-7.324,100.000,18003.000,1.000
241.131,21.635,28.319,17.439,67.297,20.426,69.092,85.756,-0.007,1.023,-0.078,-0.610,12.573,-7.660,100.000,18004.000,1.000
228.953,13.501,20.180,10.078,57.854,9.342,60.736,74.689,-0.008,1.021,-0.080,-0.793,12.878,-8.026,100.000,18005.000,1.000
219.890,7.022,13.797,4.512,49.725,0.324,53.501,63.347,-0.011,1.020,-0.080,-0.977,13.092,-8.453,100.000,18006.000,1.000
213.757,2.772,9.755,1.543,43.305,-2.856,47.691,53.376,-0.014,1.022,-0.081,-1.190,13.153,-8.820,100.000,18007.000,1.000
210.514,0.870,8.098,1.041,38.607,1.170,43.547,46.229,-0.015,1.021,-0.081,-1.190,13.214,-9.155,100.000,18008.000,1.000
209.763,1.048,8.547,2.309,35.305,10.778,41.174,42.340,-0.020,1.020,-0.077,-1.129,13.306,-9.430,100.000,18009.000,1.000
209.276,2.393,10.234,4.280,32.381,22.284,39.762,40.575,-0.021,1.017,-0.082,-1.343,13.336,-9.705,100.000,18010.000,1.000
205.656,3.360,11.676,5.662,28.531,31.493,37.541,39.013,-0.019,1.014,-0.081,-1.495,13.336,-9.918,100.000,18011.000,1.000
196.964,2.590,11.531,5.463,23.397,35.130,33.169,36.339,-0.019,1.011,-0.079,-1.648,13.519,-10.101,100.000,18012.000,1.000
184.710,0.430,10.026,4.100,18.593,32.588,27.717,33.023,-0.018,1.009,-0.077,-1.678,13.519,-10.162,100.000,18013.000,1.000
172.778,-0.865,9.085,3.439,16.789,26.689,24.406,31.021,-0.014,1.009,-0.076,-1.587,13.641,-10.254,100.000,18014.000,1.000
163.923,0.599,10.186,4.786,19.058,21.655,25.331,31.639,-0.012,1.008,-0.074,-1.556,13.763,-10.223,100.000,18015.000,1.000
157.603,4.318,12.596,7.360,23.533,20.219,29.048,34.104,-0.014,1.007,-0.076,-1.617,13.947,-10.254,100.000,18016.000,1.000
150.831,7.859,14.058,9.076,26.672,22.836,31.690,36.188,-0.012,1.004,-0.075,-1.678,14.130,-10.162,100.000,18017.000,1.000
140.517,8.851,12.728,8.301,25.503,28.798,29.837,35.691,-0.014,1.003,-0.076,-1.709,14.252,-10.132,100.000,18018.000,1.000
125.867,6.813,8.732,5.157,19.559,37.658,22.939,32.189,-0.018,1.001,-0.077,-1.587,14.557,-9.949,100.000,18019.000,1.000
109.213,3.643,4.381,1.689,11.398,49.667,13.868,27.919,-0.023,1.002,-0.075,-1.404,14.587,-9.857,100.000,18020.000,1.000
94.261,2.259,2.679,0.560,5.012,64.645,7.027,26.174,-0.030,1.003,-0.075,-1.282,14.648,-9.735,100.000,18021.000,1.000
83.611,4.473,5.262,3.182,3.382,80.377,5.687,28.655,-0.038,1.006,-0.074,-1.099,14.557,-9.613,100.000,18022.000,1.000
77.626,9.701,11.250,8.613,6.888,92.410,10.312,34.278,-0.040,1.009,-0.076,-1.068,14.374,-9.644,100.000,18023.000,1.000
74.382,15.242,17.557,13.920,12.941,95.986,17.961,39.680,-0.044,1.010,-0.081,-0.977,14.130,-9.583,100.000,18024.000,1.000
70.294,17.947,20.558,15.952,17.142,89.045,23.206,40.925,-0.046,1.012,-0.080,-0.946,13.824,-9.521,100.000,18025.000,1.000
62.043,16.250,18.310,13.393,15.928,73.947,21.103,35.912,-0.047,1.016,-0.081,-0.916,13.550,-9.521,100.000,18026.000,1.000
48.924,11.031,11.733,7.489,8.952,56.285,10.449,25.794,-0.048,1.011,-0.076,-0.946,13.336,-9.460,100.000,18027.000,1.000
33.296,4.668,3.765,0.936,-0.942,42.033,-5.471,13.985,-0.049,1.013,-0.077,-0.977,13.031,-9.460,100.000,18028.000,1.000
18.602,-0.724,-2.654,-3.999,-9.961,35.265,-21.125,3.711,-0.051,1.013,-0.083,-0.946,12.787,-9.369,100.000,18029.000,1.000
7.169,-4.188,-5.926,-6.432,-15.605,37.250,-31.775,-3.559,-0.049,1.012,-0.082,-0.916,12.512,-9.338,100.000,18030.000,1.000
-0.304,-5.530,-5.828,-6.455,-17.303,46.671,-35.260,-7.895,-0.049,1.012,-0.085,-0.854,12.329,-9.277,100.000,18031.000,1.000
-4.440,-4.952,-3.162,-4.630,-15.954,60.297,-32.450,-10.029,-0.048,1.013,-0.083,-0.854,12.115,-9.125,100.000,18032.000,1.000
-7.090,-3.360,0.361,-2.061,-13.405,73.662,-26.864,-11.024,-0.045,1.015,-0.079,-0.946,11.993,-9.094,100.000,18033.000,1.000
-10.496,-2.191,2.718,-0.230,-11.701,82.282,-23.131,-12.126,-0.045,1.017,-0.081,-1.007,11.780,-9.003,100.000,18034.000,1.000
-15.628,-2.353,2.795,-0.100,-11.949,83.682,-24.293,-14.192,-0.041,1.016,-0.084,-1.129,11.749,-8.759,100.000,18035.000,1.000
-21.579,-3.437,1.162,-1.357,-13.622,78.735,-29.656,-17.012,-0.036,1.017,-0.088,-1.282,11.597,-8.575,100.000,18036.000,1.000
-26.489,-4.071,-0.360,-2.625,-15.045,70.868,-35.143,-19.352,-0.035,1.016,-0.089,-1.251,11.780,-8.362,100.000,18037.000,1.000
-28.876,-3.107,-0.144,-2.580,-14.818,63.777,-36.183,-19.887,-0.031,1.018,-0.090,-1.312,11.780,-8.179,100.000,18038.000,1.000
-28.897,-0.761,1.847,-1.106,-13.063,59.446,-31.003,-18.371,-0.028,1.018,-0.093,-1.343,11.719,-7.996,100.000,18039.000,1.000
-28.763,1.397,4.037,0.629,-11.421,57.515,-21.732,-15.903,-0.024,1.017,-0.092,-1.404,11.902,-7.751,100.000,18040.000,1.000
-31.263,1.801,4.690,1.278,-11.736,55.862,-12.681,-14.088,-0.021,1.015,-0.093,-1.373,12.054,-7.507,100.000,18041.000,1.000
-37.550,0.155,3.254,0.396,-14.665,51.921,-7.539,-14.112,-0.016,1.014,-0.093,-1.465,12.482,-7.324,100.000,18042.000,1.000
-46.753,-2.664,0.364,-1.484,-19.571,44.209,-7.770,-16.394,-0.011,1.012,-0.093,-1.526,12.878,-7.111,100.000,18043.000,1.000
-57.472,-5.547,-2.996,-3.397,-25.599,33.170,-12.959,-20.619,-0.003,1.010,-0.092,-1.526,13.397,-6.836,100.000,18044.000,1.000
-68.652,-7.744,-5.994,-4.475,-32.247,20.994,-21.568,-25.880,0.004,1.007,-0.096,-1.617,13.916,-6.592,100.000,18045.000,1.000
-79.028,-8.846,-7.921,-4.309,-38.600,10.788,-30.924,-30.760,0.007,1.005,-0.093,-1.556,14.771,-6.378,100.000,18046.000,1.000
-86.938,-8.757,-8.279,-3.142,-42.861,5.221,-37.660,-33.708,0.008,1.003,-0.098,-1.526,15.594,-6.195,100.000,18047.000,1.000
-91.084,-7.722,-7.060,-1.756,-43.266,5.131,-39.320,-33.862,0.010,1.000,-0.097,-1.465,16.449,-6.134,100.000,18048.000,1.000
-91.023,-6.102,-4.735,-0.972,-39.248,9.217,-35.547,-31.592,0.009,1.003,-0.098,-1.312,17.273,-6.012,100.000,18049.000,1.000
-87.343,-4.198,-2.102,-1.246,-31.870,14.832,-28.025,-28.311,0.009,1.002,-0.097,-1.251,18.188,-5.981,100.000,18050.000,1.000
-81.738,-2.255,-0.097,-2.495,-23.405,19.242,-19.581,-25.652,0.006,1.008,-0.093,-1.282,19.073,-5.981,100.000,18051.000,1.000
-76.192,-0.295,0.783,-4.006,-15.963,21.126,-12.562,-24.398,0.002,1.014,-0.091,-1.404,20.111,-6.042,100.000,18052.000,1.000
-71.802,1.928,0.897,-4.687,-10.277,21.199,-7.510,-24.070,-0.001,1.022,-0.088,-1.617,20.966,-6.470,100.000,18053.000,1.000
-68.953,4.419,0.885,-3.871,-6.096,20.750,-3.702,-23.755,-0.003,1.032,-0.082,-2.014,22.003,-6.897,100.000,18054.000,1.000
-68.517,6.360,0.590,-2.079,-3.622,19.425,-1.004,-23.370,-0.006,1.041,-0.080,-2.289,22.797,-7.385,100.000,18055.000,1.000
-72.059,6.382,-1.046,-0.782,-3.938,15.097,-0.685,-23.948,-0.007,1.047,-0.075,-3.021,23.804,-7.904,100.000,18056.000,1.000
-80.214,3.904,-4.611,-1.009,-7.621,6.360,-4.004,-26.463,-0.002,1.053,-0.070,-3.815,24.689,-8.514,100.000,18057.000,1.000
-91.073,0.167,-8.982,-2.296,-13.256,-5.378,-10.188,-30.456,0.001,1.053,-0.071,-4.700,25.726,-9.277,100.000,18058.000,1.000
-100.776,-2.384,-11.860,-3.197,-17.925,-16.778,-16.312,-34.188,0.006,1.054,-0.073,-5.493,26.825,-10.223,100.000,18059.000,1.000
-105.863,-1.861,-11.586,-2.595,-19.263,-25.253,-19.306,-36.142,0.013,1.052,-0.072,-6.256,28.076,-11.108,100.000,18060.000,1.000
-105.623,1.522,-8.603,-0.631,-17.190,-30.636,-18.188,-36.214,0.018,1.047,-0.069,-6.897,29.633,-12.085,100.000,18061.000,1.000
-102.911,5.411,-5.273,1.400,-13.795,-34.234,-14.588,-35.389,0.023,1.038,-0.071,-7.507,31.342,-13.000,100.000,18062.000,1.000
-101.748,7.220,-3.942,2.068,-11.429,-36.042,-11.116,-34.469,0.029,1.032,-0.073,-8.057,33.295,-14.069,100.000,18063.000,1.000
-102.753,6.449,-4.912,0.954,-10.765,-33.128,-9.338,-33.381,0.034,1.025,-0.078,-8.301,35.309,-15.106,100.000,18064.000,1.000
-102.046,5.024,-6.181,-0.926,-10.557,-21.564,-9.253,-31.305,0.036,1.018,-0.081,-8.423,37.476,-16.083,100.000,18065.000,1.000
-96.086,5.305,-5.198,-1.817,-9.040,-0.722,-10.217,-27.209,0.035,1.014,-0.086,-8.423,39.764,-16.876,100.000,18066.000,1.000
-85.952,8.120,-0.785,-0.424,-5.385,24.278,-11.614,-20.647,0.035,1.009,-0.087,-8.514,42.236,-17.731,100.000,18067.000,1.000
-75.322,12.872,6.659,3.617,0.088,45.406,-12.634,-12.210,0.035,0.997,-0.090,-8.270,44.678,-18.768,100.000,18068.000,1.000
-66.039,18.707,16.118,9.986,6.603,57.286,-12.125,-2.970,0.030,0.990,-0.091,-7.904,47.363,-19.684,100.000,18069.000,1.000
-57.604,24.675,26.260,17.584,13.537,58.468,-9.196,6.252,0.022,0.988,-0.095,-7.507,49.835,-20.569,100.000,18070.000,1.000
-49.812,28.990,34.857,24.077,20.277,48.148,-4.034,14.592,0.016,0.988,-0.096,-7.202,52.155,-21.454,100.000,18071.000,1.000
-43.473,29.421,39.092,26.495,25.867,26.412,2.086,20.747,0.011,0.985,-0.094,-6.958,54.413,-22.247,100.000,18072.000,1.000
-38.802,25.072,37.324,23.254,29.157,-1.155,7.573,23.668,0.008,0.985,-0.090,-6.531,56.580,-23.193,100.000,18073.000,1.000
-35.526,17.489,30.450,15.753,28.920,-23.656,10.605,23.292,0.005,0.985,-0.091,-6.195,58.716,-24.048,100.000,18074.000,1.000
-35.241,9.632,21.216,7.639,23.529,-32.201,8.291,20.111,0.005,0.985,-0.092,-5.920,60.822,-24.933,100.000,18075.000,1.000
-41.308,3.745,12.289,2.161,11.677,-26.736,-2.633,14.501,0.007,0.985,-0.093,-5.524,62.988,-25.635,100.000,18076.000,1.000
-54.447,0.316,5.241,0.256,-5.096,-16.447,-22.241,7.058,0.010,0.989,-0.094,-5.371,65.338,-26.306,100.000,18077.000,1.000
-69.265,-1.189,0.823,0.945,-21.248,-13.400,-44.912,-0.952,0.010,0.990,-0.095,-5.219,67.688,-26.825,100.000,18078.000,1.000
-76.388,-1.338,-0.847,2.654,-30.008,-24.053,-61.851,-7.973,0.006,0.990,-0.096,-5.127,69.977,-27.191,100.000,18079.000,1.000
-68.784,-0.743,-0.565,3.994,-27.473,-46.096,-66.309,-12.509,0.000,0.993,-0.094,-4.974,72.357,-27.527,100.000,18080.000,1.000
-47.406,-0.583,-0.122,3.977,-14.852,-72.689,-57.224,-13.671,-0.007,0.995,-0.098,-4.944,74.707,-27.771,100.000,18081.000,1.000
-20.642,-2.251,-1.550,2.170,2.159,-97.535,-39.425,-12.351,-0.020,0.999,-0.095,-5.066,76.874,-27.954,100.000,18082.000,1.000
2.559,-6.130,-5.716,-1.177,16.729,-115.665,-20.405,-10.980,-0.035,1.002,-0.098,-5.188,78.766,-28.198,100.000,18083.000,1.000
18.366,-11.101,-11.590,-5.267,24.771,-123.502,-6.036,-11.263,-0.049,1.005,-0.102,-5.341,80.414,-28.503,100.000,18084.000,1.000
27.205,-15.523,-17.207,-9.169,26.042,-121.564,1.437,-13.073,-0.065,1.011,-0.099,-5.341,81.879,-28.900,100.000,18085.000,1.000
30.076,-18.595,-21.390,-12.283,22.206,-115.956,2.458,-16.287,-0.080,1.016,-0.097,-5.859,83.069,-29.297,100.000,18086.000,1.000
28.080,-20.673,-24.388,-14.563,14.978,-114.598,-1.119,-22.045,-0.092,1.019,-0.095,-6.256,83.954,-29.510,100.000,18087.000,1.000
24.507,-22.415,-26.904,-16.211,6.417,-120.746,-5.845,-30.475,-0.106,1.022,-0.092,-6.714,84.717,-29.755,100.000,18088.000,1.000
24.162,-24.079,-29.008,-17.295,-0.559,-130.749,-6.995,-38.575,-0.121,1.023,-0.088,-7.446,85.083,-29.877,100.000,18089.000,1.000
29.189,-25.831,-30.348,-17.901,-3.728,-138.527,-1.307,-42.535,-0.137,1.023,-0.083,-8.209,85.419,-30.121,100.000,18090.000,1.000
36.968,-28.011,-30.960,-18.353,-3.555,-140.562,10.289,-41.558,-0.150,1.025,-0.084,-8.759,85.419,-30.334,100.000,18091.000,1.000
43.093,-30.495,-31.221,-18.819,-2.551,-136.811,23.459,-37.844,-0.160,1.027,-0.083,-9.430,85.266,-30.518,100.000,18092.000,1.000
44.949,-32.521,-31.352,-19.036,-2.966,-130.169,33.572,-33.881,-0.169,1.027,-0.081,-10.010,84.869,-30.487,100.000,18093.000,1.000
41.701,-33.873,-31.766,-18.987,-6.176,-124.896,37.385,-31.548,-0.179,1.026,-0.077,-10.590,84.229,-30.640,100.000,18094.000,1.000
33.340,-35.463,-33.364,-19.362,-13.290,-121.874,33.300,-32.533,-0.189,1.025,-0.071,-11.169,83.374,-30.670,100.000,18095.000,1.000
21.824,-37.862,-36.408,-20.596,-24.158,-115.388,22.471,-36.900,-0.200,1.024,-0.068,-12.054,82.489,-30.365,100.000,18096.000,1.000
11.746,-39.799,-39.274,-21.726,-35.659,-97.750,9.799,-41.347,-0.207,1.021,-0.067,-12.634,81.207,-29.877,100.000,18097.000,1.000
7.656,-39.012,-39.290,-20.977,-42.765,-67.958,1.849,-40.991,-0.219,1.017,-0.061,-13.306,79.926,-29.541,100.000,18098.000,1.000
10.162,-34.673,-35.194,-17.641,-42.644,-34.284,1.856,-33.759,-0.227,1.014,-0.057,-13.580,78.430,-29.083,100.000,18099.000,1.000
15.012,-28.442,-28.503,-13.026,-37.550,-8.131,6.386,-22.439,-0.234,1.013,-0.055,-13.947,76.721,-28.381,100.000,18100.000,1.000
15.977,-23.061,-22.312,-9.331,-33.108,3.934,7.383,-12.179,-0.241,1.009,-0.053,-14.343,74.738,-27.618,100.000,18101.000,1.000
8.498,-20.476,-19.083,-7.916,-34.185,3.224,-2.375,-6.774,-0.246,1.004,-0.051,-14.618,72.876,-26.672,100.000,18102.000,1.000
-8.273,-21.211,-19.478,-8.823,-42.153,-3.874,-24.814,-7.171,-0.253,1.000,-0.048,-14.374,70.892,-25.726,100.000,18103.000,1.000
-30.896,-24.416,-22.303,-11.299,-54.216,-10.811,-54.835,-11.493,-0.260,1.000,-0.047,-14.038,68.695,-24.567,100.000,18104.000,1.000
-52.792,-28.086,-25.142,-14.157,-64.619,-13.569,-81.990,-15.506,-0.266,1.003,-0.045,-13.824,66.315,-23.163,100.000,18105.000,1.000
-67.779,-30.000,-25.767,-15.997,-68.110,-11.073,-96.007,-14.961,-0.273,1.002,-0.038,-13.489,63.873,-21.759,100.000,18106.000,1.000
-73.763,-29.053,-23.576,-15.731,-63.599,-4.902,-92.961,-9.043,-0.281,1.001,-0.034,-13.245,61.279,-20.172,100.000,18107.000,1.000
-73.151,-25.579,-19.616,-13.095,-54.454,2.265,-76.841,-0.908,-0.289,1.002,-0.038,-12.787,58.655,-18.585,100.000,18108.000,1.000
-69.998,-20.507,-15.226,-8.646,-45.078,9.404,-55.385,5.851,-0.293,0.999,-0.036,-12.329,56.000,-17.090,100.000,18109.000,1.000
-66.985,-14.494,-10.891,-3.349,-37.470,19.679,-34.645,10.634,-0.295,1.000,-0.036,-11.627,53.131,-15.503,100.000,18110.000,1.000
-64.903,-7.880,-6.525,1.755,-31.402,41.458,-17.417,15.159,-0.296,1.003,-0.031,-11.078,50.262,-13.794,100.000,18111.000,1.000
-65.019,-1.377,-2.693,5.527,-27.618,84.433,-6.084,19.844,-0.298,1.004,-0.036,-10.437,47.333,-12.054,100.000,18112.000,1.000
-71.235,3.461,-1.072,6.768,-29.611,149.481,-5.129,21.790,-0.296,1.005,-0.036,-9.796,44.128,-10.315,100.000,18113.000,1.000
-87.606,5.096,-3.048,4.904,-40.566,221.336,-18.513,17.146,-0.292,1.002,-0.038,-9.247,41.443,-8.606,100.000,18114.000,1.000
-112.256,3.675,-7.648,0.887,-58.028,273.905,-43.602,5.716,-0.290,1.002,-0.036,-8.606,38.757,-6.866,100.000,18115.000,1.000
-134.910,1.509,-11.375,-2.876,-72.742,284.386,-69.014,-7.186,-0.287,1.006,-0.036,-7.874,35.919,-5.157,100.000,18116.000,1.000
-142.200,1.559,-10.654,-3.914,-74.169,245.334,-80.252,-14.021,-0.282,1.007,-0.035,-7.141,33.539,-3.571,100.000,18117.000,1.000
-126.560,5.245,-4.660,-1.404,-58.059,168.111,-68.725,-10.606,-0.284,1.010,-0.033,-6.500,31.128,-1.923,100.000,18118.000,1.000
-91.210,11.382,4.018,3.251,-29.440,76.631,-36.731,1.003,-0.287,1.013,-0.031,-5.981,28.473,-0.275,100.000,18119.000,1.000
-47.687,17.037,11.279,7.436,1.101,-4.974,4.990,14.438,-0.290,1.012,-0.031,-5.615,25.970,1.373,100.000,18120.000,1.000
-8.753,19.496,14.154,8.929,24.085,-62.566,44.198,23.341,-0.294,1.009,-0.032,-5.341,23.315,2.869,100.000,18121.000,1.000
17.523,17.782,12.157,6.932,35.234,-92.835,72.710,24.490,-0.297,1.009,-0.032,-4.944,20.538,4.150,100.000,18122.000,1.000
29.845,13.106,7.190,2.516,35.647,-97.751,88.161,18.776,-0.297,1.005,-0.031,-4.425,17.761,5.524,100.000,18123.000,1.000
32.979,8.441,2.733,-1.572,30.297,-81.592,93.496,10.503,-0.296,1.001,-0.035,-3.998,15.015,6.836,100.000,18124.000,1.000
34.376,6.876,2.061,-2.462,25.192,-51.291,94.348,4.607,-0.291,0.998,-0.038,-3.448,12.177,7.935,100.000,18125.000,1.000
38.529,9.305,5.779,0.666,23.103,-15.096,94.222,2.866,-0.284,0.999,-0.041,-3.052,9.399,9.033,100.000,18126.000,1.000
43.970,13.731,11.074,6.000,21.541,20.007,91.569,2.723,-0.274,1.000,-0.039,-2.472,6.744,10.071,100.000,18127.000,1.000
46.457,17.151,14.019,10.759,16.146,48.789,82.730,0.440,-0.265,1.001,-0.039,-2.075,4.242,10.925,100.000,18128.000,1.000
44.159,17.852,12.633,13.226,5.922,67.064,67.507,-4.786,-0.255,1.002,-0.036,-1.709,1.923,11.932,100.000,18129.000,1.000
39.035,15.787,7.611,13.135,-5.662,72.216,50.614,-10.427,-0.247,1.008,-0.039,-1.526,-0.275,12.817,100.000,18130.000,1.000
35.055,11.823,1.036,10.806,-13.594,64.272,38.449,-13.389,-0.241,1.009,-0.042,-1.343,-2.411,13.580,100.000,18131.000,1.000
36.465,7.474,-4.752,6.763,-14.011,45.707,35.695,-11.967,-0.235,1.009,-0.046,-1.099,-4.486,14.435,100.000,18132.000,1.000
45.610,4.453,-7.955,1.928,-5.819,20.442,43.201,-6.406,-0.228,1.006,-0.047,-0.916,-6.439,15.106,100.000,18133.000,1.000
60.095,3.457,-8.332,-2.575,7.850,-6.558,56.574,0.492,-0.220,1.003,-0.050,-0.732,-8.331,15.656,100.000,18134.000,1.000
73.020,3.715,-7.338,-5.889,20.392,-29.541,67.668,4.296,-0.210,1.001,-0.050,-0.366,-10.040,15.991,100.000,18135.000,1.000
77.893,4.139,-6.636,-7.542,26.035,-43.387,69.893,2.480,-0.200,0.999,-0.056,0.122,-11.444,16.266,100.000,18136.000,1.000
73.551,4.656,-6.432,-7.185,24.112,-45.450,62.954,-2.998,-0.189,0.997,-0.055,0.458,-12.878,16.510,100.000,18137.000,1.000
64.274,6.251,-5.417,-4.470,18.966,-36.136,52.303,-7.539,-0.181,0.998,-0.057,0.885,-14.069,16.541,100.000,18138.000,1.000
56.133,9.843,-2.184,0.501,16.154,-18.868,44.522,-7.908,-0.175,0.995,-0.054,1.221,-15.137,16.632,100.000,18139.000,1.000
53.320,15.262,3.425,6.693,18.912,-0.005,43.236,-3.778,-0.167,0.995,-0.057,1.465,-16.083,16.479,100.000,18140.000,1.000
56.112,21.042,9.992,12.311,26.833,12.845,47.802,3.259,-0.163,0.995,-0.060,1.648,-16.876,16.266,100.000,18141.000,1.000
60.969,25.013,15.180,15.531,36.593,14.662,54.377,10.549,-0.161,0.997,-0.058,1.984,-17.609,15.900,100.000,18142.000,1.000
63.271,25.568,17.062,15.302,44.207,6.205,58.651,15.316,-0.157,1.000,-0.062,2.106,-18.402,15.503,100.000,18143.000,1.000
60.767,22.732,15.249,11.811,47.419,-6.679,58.438,16.631,-0.156,1.002,-0.062,2.167,-19.073,14.954,100.000,18144.000,1.000
54.592,18.017,10.910,6.342,46.415,-17.048,54.151,16.379,-0.152,1.006,-0.062,2.136,-19.684,14.313,100.000,18145.000,1.000
47.612,13.381,5.992,0.818,42.957,-20.305,47.674,17.551,-0.150,1.007,-0.064,2.167,-20.416,13.580,100.000,18146.000,1.000
42.540,10.455,2.525,-2.783,39.463,-15.015,41.476,21.785,-0.149,1.010,-0.064,2.045,-21.057,12.848,100.000,18147.000,1.000
41.211,10.227,2.034,-3.217,38.367,-2.527,38.056,28.742,-0.147,1.015,-0.063,1.892,-21.729,11.993,100.000,18148.000,1.000
43.866,12.534,4.636,-0.731,40.735,12.668,38.400,36.640,-0.139,1.014,-0.064,1.678,-22.339,11.078,100.000,18149.000,1.000
48.024,15.644,8.500,3.045,44.748,23.327,40.197,42.479,-0.131,1.016,-0.059,1.373,-22.919,10.132,100.000,18150.000,1.000
49.113,17.136,10.967,6.327,46.492,22.872,38.763,42.909,-0.117,1.016,-0.063,0.946,-23.254,9.460,100.000,18151.000,1.000
43.822,15.558,10.501,8.205,43.117,9.729,30.761,36.526,-0.104,1.010,-0.063,0.641,-23.499,8.636,100.000,18152.000,1.000
33.644,11.400,7.670,8.566,35.550,-10.958,17.475,25.723,-0.093,1.006,-0.063,0.397,-23.346,7.874,100.000,18153.000,1.000
24.526,6.773,4.648,7.798,28.190,-29.205,4.553,15.706,-0.084,1.004,-0.066,0.244,-23.041,7.355,100.000,18154.000,1.000
22.239,3.990,3.760,6.701,25.572,-35.607,-1.971,10.939,-0.079,1.004,-0.066,0.031,-22.491,6.927,100.000,18155.000,1.000
28.286,4.035,5.955,6.008,29.180,-28.036,0.070,12.483,-0.074,1.000,-0.068,-0.092,-21.881,6.561,100.000,18156.000,1.000
39.703,5.969,10.148,5.629,37.021,-13.802,7.985,18.449,-0.072,0.997,-0.068,-0.305,-21.179,6.165,100.000,18157.000,1.000
51.300,7.589,13.961,4.682,45.289,-4.151,16.469,25.849,-0.074,0.994,-0.069,-0.366,-20.569,5.737,100.000,18158.000,1.000
58.420,6.866,15.397,2.452,50.367,-5.902,20.854,31.697,-0.076,0.993,-0.070,-0.336,-19.958,5.371,100.000,18159.000,1.000
59.169,3.247,14.079,-0.830,50.354,-17.179,19.242,33.783,-0.081,0.992,-0.069,-0.336,-19.318,4.791,100.000,18160.000,1.000
54.697,-1.931,11.321,-4.015,45.756,-29.209,12.698,32.059,-0.083,0.993,-0.068,-0.214,-18.555,4.272,100.000,18161.000,1.000
47.428,-6.233,9.225,-5.674,38.889,-32.392,3.935,28.898,-0.090,0.993,-0.068,-0.092,-18.036,3.693,100.000,18162.000,1.000
39.601,-7.594,9.520,-4.820,32.631,-23.817,-4.158,27.025,-0.094,0.996,-0.068,-0.031,-17.609,3.143,100.000,18163.000,1.000
33.421,-5.287,12.907,-1.292,29.648,-10.610,-9.204,27.576,-0.096,0.998,-0.067,-0.092,-17.242,2.686,100.000,18164.000,1.000
30.940,-0.081,18.890,4.125,31.686,-4.198,-9.840,30.268,-0.100,0.999,-0.066,-0.122,-16.815,2.319,100.000,18165.000,1.000
32.718,6.124,25.840,9.773,38.400,-10.290,-6.488,34.155,-0.104,0.999,-0.066,-0.183,-16.571,1.770,100.000,18166.000,1.000
36.989,10.992,31.487,13.753,46.846,-25.403,-1.426,37.537,-0.105,1.003,-0.065,-0.183,-16.418,1.282,100.000,18167.000,1.000
40.440,12.624,33.801,14.860,52.603,-41.711,2.183,38.158,-0.106,1.002,-0.066,-0.275,-16.083,0.824,100.000,18168.000,1.000
40.137,10.503,31.997,13.231,52.175,-52.479,1.769,34.827,-0.105,1.002,-0.063,-0.244,-15.717,0.336,100.000,18169.000,1.000
35.467,5.895,27.045,10.160,45.188,-54.182,-3.234,28.730,-0.104,1.002,-0.062,-0.488,-15.503,-0.092,100.000,18170.000,1.000
28.524,0.969,21.047,7.097,34.598,-47.444,-10.982,22.300,-0.103,1.001,-0.064,-0.549,-15.106,-0.427,100.000,18171.000,1.000
22.058,-2.844,15.692,4.553,24.382,-36.987,-18.620,16.829,-0.103,1.000,-0.064,-0.610,-14.862,-0.793,100.000,18172.000,1.000
16.597,-5.952,10.923,1.690,16.487,-29.396,-24.669,11.539,-0.102,1.002,-0.063,-0.641,-14.404,-1.221,100.000,18173.000,1.000
10.035,-10.234,5.071,-3.093,9.919,-29.970,-29.970,4.667,-0.107,0.999,-0.064,-0.549,-13.947,-1.434,100.000,18174.000,1.000
0.491,-17.110,-3.164,-10.571,2.858,-40.238,-35.975,-4.661,-0.109,0.999,-0.060,-0.397,-13.580,-1.617,100.000,18175.000,1.000
-10.383,-25.205,-12.243,-18.908,-4.269,-56.292,-41.991,-14.882,-0.116,0.999,-0.060,-0.366,-13.397,-1.801,100.000,18176.000,1.000
-16.841,-29.635,-17.204,-23.349,-7.614,-69.254,-44.023,-21.594,-0.122,1.000,-0.061,-0.305,-13.153,-2.075,100.000,18177.000,1.000
-12.733,-24.667,-12.474,-18.759,-2.310,-69.990,-37.039,-19.628,-0.129,1.000,-0.061,-0.153,-13.092,-2.258,100.000,18178.000,1.000
2.842,-8.619,3.415,-3.859,12.851,-55.795,-19.726,-7.305,-0.137,1.004,-0.061,-0.092,-13.214,-2.441,100.000,18179.000,1.000
23.485,13.586,25.456,16.683,32.909,-32.354,2.827,10.981,-0.144,1.005,-0.062,0.000,-13.458,-2.472,100.000,18180.000,1.000
39.334,33.130,44.751,34.653,49.261,-9.207,21.679,26.967,-0.149,1.008,-0.059,0.000,-13.763,-2.563,100.000,18181.000,1.000
43.036,42.803,53.865,43.181,55.042,5.959,29.561,33.551,-0.150,1.011,-0.061,0.031,-14.099,-2.777,100.000,18182.000,1.000
33.518,40.939,50.900,40.492,49.165,10.226,25.014,28.793,-0.154,1.013,-0.058,0.092,-14.526,-2.686,100.000,18183.000,1.000
16.053,31.445,39.714,30.242,36.323,5.679,12.530,16.485,-0.154,1.013,-0.060,0.122,-14.862,-2.747,100.000,18184.000,1.000
-1.172,20.471,26.597,18.443,23.180,-2.599,-1.023,3.091,-0.155,1.013,-0.061,0.092,-15.381,-2.716,100.000,18185.000,1.000
-12.099,12.469,16.255,9.596,13.975,-9.938,-10.719,-6.429,-0.154,1.015,-0.059,0.092,-15.961,-2.716,100.000,18186.000,1.000
-16.177,8.268,9.839,4.841,8.572,-14.352,-15.840,-11.035,-0.149,1.015,-0.061,0.122,-16.479,-2.594,100.000,18187.000,1.000
-17.318,5.898,5.707,2.688,3.665,-15.604,-19.111,-13.080,-0.147,1.011,-0.061,0.061,-17.059,-2.655,100.000,18188.000,1.000
-19.478,3.089,1.807,1.063,-3.846,-12.901,-23.532,-15.443,-0.142,1.009,-0.061,-0.061,-17.517,-2.533,100.000,18189.000,1.000
-23.799,-0.880,-2.517,-1.051,-14.161,-4.899,-29.681,-18.843,-0.135,1.007,-0.061,-0.061,-17.792,-2.411,100.000,18190.000,1.000
-29.586,-5.254,-6.618,-3.397,-24.909,8.120,-35.947,-21.823,-0.127,1.006,-0.062,0.061,-17.975,-2.167,100.000,18191.000,1.000
-35.980,-8.833,-9.578,-5.219,-33.380,23.201,-40.592,-22.802,-0.119,1.007,-0.061,0.031,-18.036,-1.923,100.000,18192.000,1.000
-42.032,-10.731,-10.868,-6.102,-38.057,36.236,-43.101,-21.675,-0.115,1.007,-0.063,0.214,-17.944,-1.678,100.000,18193.000,1.000
-46.617,-10.650,-10.514,-6.317,-38.805,44.558,-44.022,-19.686,-0.113,1.009,-0.064,0.214,-17.883,-1.404,100.000,18194.000,1.000
-49.404,-8.940,-9.084,-6.543,-36.599,48.080,-44.157,-18.275,-0.112,1.010,-0.067,0.061,-17.700,-1.007,100.000,18195.000,1.000
-51.470,-6.507,-7.493,-7.221,-33.115,48.075,-43.972,-18.096,-0.112,1.010,-0.066,-0.031,-17.517,-0.671,100.000,18196.000,1.000
-54.092,-4.467,-6.520,-8.127,-30.071,45.531,-43.498,-18.785,-0.112,1.010,-0.064,-0.122,-17.151,-0.214,100.000,18197.000,1.000
-57.162,-3.569,-6.287,-8.577,-28.432,41.050,-42.429,-19.309,-0.115,1.010,-0.062,-0.031,-16.968,0.092,100.000,18198.000,1.000
-59.633,-3.689,-6.053,-7.887,-27.704,35.570,-39.960,-18.349,-0.119,1.009,-0.063,-0.092,-16.815,0.366,100.000,18199.000,1.000
-61.059,-3.899,-4.664,-5.746,-26.160,30.021,-35.056,-14.939,-0.119,1.009,-0.064,-0.183,-16.724,0.580,100.000,18200.000,1.000
-61.398,-3.306,-1.596,-2.525,-22.695,24.445,-27.948,-9.664,-0.123,1.007,-0.064,-0.214,-16.571,0.702,100.000,18201.000,1.000
-59.771,-1.837,2.480,0.738,-18.348,18.871,-20.939,-4.878,-0.125,1.005,-0.069,-0.214,-16.541,0.763,100.000,18202.000,1.000
-55.433,-0.106,6.381,2.999,-15.193,14.983,-16.588,-2.782,-0.120,1.004,-0.066,-0.275,-16.388,0.824,100.000,18203.000,1.000
-50.018,1.252,9.335,3.893,-14.290,15.309,-15.605,-3.723,-0.116,1.003,-0.065,-0.275,-16.357,0.854,100.000,18204.000,1.000
-46.906,1.869,10.976,3.780,-15.574,20.524,-17.412,-6.953,-0.112,1.005,-0.068,-0.244,-16.174,1.007,100.000,18205.000,1.000
-47.946,1.489,10.919,3.293,-19.046,28.584,-21.945,-12.143,-0.108,1.006,-0.067,-0.183,-15.808,0.946,100.000,18206.000,1.000
-51.902,0.082,8.958,2.952,-24.697,36.572,-29.493,-19.132,-0.104,1.005,-0.068,-0.183,-15.259,1.038,100.000,18207.000,1.000
-55.875,-1.674,5.753,3.196,-31.260,42.784,-38.795,-26.553,-0.100,1.006,-0.064,-0.153,-14.862,0.946,100.000,18208.000,1.000
-57.242,-2.604,2.716,4.295,-36.291,46.963,-46.719,-31.918,-0.098,1.008,-0.062,-0.153,-14.252,0.946,100.000,18209.000,1.000
-54.564,-2.119,0.860,5.805,-38.031,49.281,-50.416,-33.481,-0.097,1.010,-0.063,-0.092,-13.458,1.099,100.000,18210.000,1.000
-48.142,-0.941,-0.054,6.412,-36.779,49.860,-49.282,-31.561,-0.097,1.011,-0.064,-0.153,-12.756,1.190,100.000,18211.000,1.000
-40.653,-0.679,-1.302,4.667,-34.609,48.909,-44.991,-28.162,-0.096,1.011,-0.063,-0.275,-12.054,1.099,100.000,18212.000,1.000
-36.021,-2.772,-4.323,-0.128,-34.034,46.596,-40.222,-25.597,-0.097,1.009,-0.063,-0.305,-11.322,1.099,100.000,18213.000,1.000
-35.902,-7.404,-9.592,-7.359,-36.320,43.104,-36.899,-24.832,-0.102,1.009,-0.064,-0.305,-10.651,1.129,100.000,18214.000,1.000
-37.657,-13.031,-15.891,-14.975,-40.595,39.451,-35.056,-24.683,-0.102,1.007,-0.062,-0.397,-10.040,1.221,100.000,18215.000,1.000
-36.695,-17.122,-20.850,-20.290,-44.824,37.830,-33.429,-23.097,-0.101,1.007,-0.063,-0.458,-9.430,1.282,100.000,18216.000,1.000
-30.318,-17.669,-22.436,-21.490,-47.302,40.269,-30.875,-18.994,-0.101,1.009,-0.059,-0.519,-8.759,1.282,100.000,18217.000,1.000
-19.688,-14.249,-20.032,-18.579,-46.857,46.710,-26.792,-12.298,-0.100,1.007,-0.066,-0.458,-8.179,1.312,100.000,18218.000,1.000
-8.900,-8.039,-14.578,-13.044,-42.679,54.263,-20.920,-3.414,-0.104,1.008,-0.063,-0.366,-7.507,1.312,100.000,18219.000,1.000
-1.720,-1.102,-8.110,-6.900,-35.183,58.320,-13.853,5.906,-0.104,1.009,-0.064,-0.397,-6.897,1.312,100.000,18220.000,1.000
1.042,4.645,-2.786,-1.774,-26.535,55.489,-7.339,12.463,-0.103,1.010,-0.064,-0.549,-6.256,1.343,100.000,18221.000,1.000
1.094,8.355,0.340,1.752,-19.201,46.477,-3.092,14.010,-0.103,1.009,-0.064,-0.580,-5.768,1.251,100.000,18222.000,1.000
0.552,10.283,1.604,3.983,-14.261,35.630,-1.519,11.082,-0.104,1.005,-0.062,-0.702,-5.127,1.282,100.000,18223.000,1.000
0.867,10.965,1.863,5.369,-11.524,27.173,-1.954,5.831,-0.101,1.005,-0.063,-0.702,-4.578,1.282,100.000,18224.000,1.000
3.022,10.732,1.808,6.164,-10.390,22.414,-3.443,0.203,-0.097,1.003,-0.062,-0.824,-4.028,1.251,100.000,18225.000,1.000
7.043,9.702,1.786,6.468,-10.148,20.183,-5.147,-4.414,-0.094,1.002,-0.063,-0.854,-3.418,1.251,100.000,18226.000,1.000
10.972,7.716,1.555,6.146,-10.360,18.489,-6.885,-7.249,-0.092,1.002,-0.061,-0.793,-2.808,1.312,100.000,18227.000,1.000
11.687,4.495,0.219,4.897,-11.486,15.613,-9.591,-8.757,-0.088,1.001,-0.063,-0.763,-2.258,1.373,100.000,18228.000,1.000
7.420,0.135,-3.175,2.546,-14.699,11.028,-14.711,-10.510,-0.086,1.000,-0.064,-0.641,-1.465,1.312,100.000,18229.000,1.000
-0.916,-4.612,-8.684,-0.661,-20.526,5.851,-22.651,-13.677,-0.088,1.004,-0.064,-0.549,-0.824,1.404,100.000,18230.000,1.000
-10.395,-8.515,-14.892,-3.940,-27.510,1.920,-31.574,-17.594,-0.089,1.005,-0.065,-0.519,0.000,1.526,100.000,18231.000,1.000
-17.290,-10.387,-19.491,-6.261,-32.550,0.281,-37.901,-20.116,-0.088,1.006,-0.063,-0.580,0.427,1.617,100.000,18232.000,1.000
-18.343,-9.782,-20.817,-6.966,-33.008,0.610,-38.534,-19.299,-0.092,1.008,-0.063,-0.549,1.221,1.648,100.000,18233.000,1.000
-12.452,-7.329,-19.004,-6.197,-28.514,1.810,-32.788,-14.499,-0.096,1.009,-0.059,-0.549,1.862,1.678,100.000,18234.000,1.000
-2.011,-4.532,-15.969,-4.943,-20.974,2.596,-22.479,-6.450,-0.103,1.010,-0.059,-0.671,2.472,1.648,100.000,18235.000,1.000
8.017,-3.153,-14.346,-4.647,-13.267,1.710,-10.667,2.899,-0.109,1.012,-0.060,-0.763,2.899,1.678,100.000,18236.000,1.000
13.511,-4.181,-15.839,-6.252,-7.598,-1.501,-0.032,11.042,-0.112,1.012,-0.063,-0.824,3.265,1.923,100.000,18237.000,1.000
13.900,-7.064,-20.099,-9.401,-4.468,-6.589,8.357,16.218,-0.116,1.011,-0.064,-0.885,3.418,1.709,100.000,18238.000,1.000
11.487,-10.085,-25.084,-12.619,-2.864,-12.513,15.094,18.204,-0.121,1.015,-0.060,-1.007,3.571,1.678,100.000,18239.000,1.000
9.022,-11.426,-28.315,-14.111,-1.239,-18.375,21.381,18.046,-0.123,1.016,-0.060,-1.038,3.601,1.465,100.000,18240.000,1.000
8.364,-10.072,-28.051,-12.638,1.541,-23.350,27.753,17.188,-0.126,1.014,-0.060,-1.160,3.510,1.404,100.000,18241.000,1.000
10.371,-6.252,-24.053,-8.328,5.676,-26.589,33.531,16.535,-0.126,1.017,-0.058,-1.221,3.601,1.312,100.000,18242.000,1.000
14.949,-1.158,-17.514,-2.664,10.634,-27.601,37.577,16.151,-0.128,1.017,-0.058,-1.251,3.540,1.129,100.000,18243.000,1.000
21.084,3.854,-10.198,2.608,15.654,-26.502,39.486,15.627,-0.129,1.016,-0.058,-1.251,3.357,0.916,100.000,18244.000,1.000
27.178,7.767,-3.722,6.464,19.752,-24.029,39.512,14.388,-0.129,1.017,-0.057,-1.465,3.265,0.946,100.000,18245.000,1.000
31.574,9.996,0.733,8.729,21.659,-21.374,37.586,11.912,-0.129,1.015,-0.060,-1.434,3.082,0.793,100.000,18246.000,1.000
33.015,10.418,2.708,9.677,20.552,-19.706,33.330,8.120,-0.132,1.015,-0.057,-1.526,2.930,0.793,100.000,18247.000,1.000
31.203,9.296,2.601,9.515,16.817,-19.813,26.957,3.327,-0.132,1.012,-0.055,-1.556,2.777,0.641,100.000,18248.000,1.000
27.444,7.113,1.328,8.204,11.795,-22.108,19.460,-2.188,-0.130,1.011,-0.055,-1.495,2.533,0.641,100.000,18249.000,1.000
24.321,4.473,-0.144,5.775,6.949,-26.614,12.028,-8.113,-0.128,1.009,-0.059,-1.587,2.380,0.488,100.000,18250.000,1.000
23.859,1.929,-1.077,2.646,3.299,-32.693,5.725,-13.598,-0.128,1.005,-0.062,-1.404,2.197,0.671,100.000,18251.000,1.000
25.835,-0.256,-1.146,-0.528,1.233,-38.706,1.460,-17.383,-0.128,1.003,-0.060,-1.282,1.953,0.793,100.000,18252.000,1.000
28.161,-2.171,-0.581,-3.315,0.518,-42.192,-0.176,-18.570,-0.128,1.004,-0.060,-1.099,1.923,0.885,100.000,18253.000,1.000
28.867,-3.962,0.053,-5.642,0.722,-40.848,0.978,-16.830,-0.127,1.004,-0.059,-0.885,1.862,1.007,100.000,18254.000,1.000
27.465,-5.452,0.369,-7.415,1.746,-33.825,4.753,-11.923,-0.127,1.004,-0.056,-0.732,1.648,1.129,100.000,18255.000,1.000
24.522,-6.242,0.305,-8.252,3.661,-22.504,10.478,-3.879,-0.126,1.006,-0.057,-0.641,1.465,1.343,100.000,18256.000,1.000
20.599,-6.163,-0.083,-7.771,6.167,-10.105,16.700,6.264,-0.125,1.008,-0.054,-0.397,1.251,1.434,100.000,18257.000,1.000
16.051,-5.488,-0.718,-6.064,8.552,-0.193,21.536,16.501,-0.126,1.006,-0.059,-0.366,1.068,1.648,100.000,18258.000,1.000
11.251,-4.909,-1.582,-3.896,9.881,4.698,23.411,24.553,-0.125,1.009,-0.054,-0.275,0.977,1.862,100.000,18259.000,1.000
6.527,-5.220,-2.791,-2.297,9.209,3.603,21.647,28.529,-0.124,1.011,-0.055,-0.183,0.793,1.984,100.000,18260.000,1.000
2.223,-6.657,-4.268,-1.733,6.322,-2.597,16.924,27.754,-0.125,1.012,-0.052,-0.153,0.519,2.075,100.000,18261.000,1.000
-0.962,-8.518,-5.427,-1.719,2.468,-11.117,11.286,23.453,-0.125,1.012,-0.053,-0.336,0.275,2.228,100.000,18262.000,1.000
-1.872,-9.514,-5.425,-1.224,-0.050,-18.210,7.280,18.262,-0.126,1.012,-0.051,-0.336,0.092,2.411,100.000,18263.000,1.000
0.473,-8.585,-3.775,0.576,0.547,-21.025,6.523,14.498,-0.127,1.010,-0.055,-0.488,0.061,2.319,100.000,18264.000,1.000
5.686,-5.763,-0.833,3.604,4.130,-19.086,8.723,12.671,-0.126,1.010,-0.054,-0.366,0.031,2.350,100.000,18265.000,1.000
11.703,-2.343,2.291,6.746,8.744,-14.143,12.036,11.618,-0.127,1.009,-0.051,-0.336,-0.153,2.258,100.000,18266.000,1.000
15.945,0.042,4.386,8.608,11.828,-8.822,14.320,9.707,-0.126,1.009,-0.051,-0.397,-0.397,2.228,100.000,18267.000,1.000
16.537,0.438,4.749,8.406,11.423,-5.558,14.032,5.724,-0.124,1.005,-0.052,-0.366,-0.488,2.197,100.000,18268.000,1.000
12.797,-1.218,3.381,6.216,7.007,-6.018,10.616,-0.686,-0.121,1.005,-0.055,-0.458,-0.549,2.106,100.000,18269.000,1.000
5.734,-4.336,0.952,2.792,-0.024,-10.325,4.852,-8.635,-0.116,1.003,-0.056,-0.549,-0.580,2.014,100.000,18270.000,1.000
-1.802,-7.837,-1.397,-0.750,-6.697,-16.524,-1.007,-16.003,-0.115,1.004,-0.055,-0.305,-0.488,2.075,100.000,18271.000,1.000
-6.583,-10.415,-2.565,-3.308,-9.936,-21.412,-4.127,-20.369,-0.113,1.002,-0.053,-0.275,-0.427,2.045,100.000,18272.000,1.000
-7.336,-11.147,-2.156,-4.293,-8.477,-22.529,-2.996,-20.604,-0.112,1.003,-0.056,-0.122,-0.153,1.862,100.000,18273.000,1.000
-5.317,-10.005,-0.730,-3.980,-3.592,-19.471,1.488,-17.665,-0.113,1.005,-0.062,-0.061,-0.122,1.892,100.000,18274.000,1.000
-2.797,-7.798,0.699,-3.291,2.123,-13.537,7.060,-13.555,-0.113,1.003,-0.057,-0.061,-0.031,1.923,100.000,18275.000,1.000
-1.638,-5.603,1.358,-3.123,6.488,-6.654,11.844,-9.728,-0.115,1.001,-0.057,-0.122,0.244,1.892,100.000,18276.000,1.000
-2.748,-4.183,1.000,-3.813,8.509,-0.662,15.040,-6.653,-0.115,1.002,-0.055,0.000,0.397,1.801,100.000,18277.000,1.000
-5.867,-3.748,-0.232,-5.075,8.293,3.055,16.748,-4.253,-0.116,1.004,-0.054,0.000,0.397,1.740,100.000,18278.000,1.000
-9.787,-4.160,-2.030,-6.383,6.721,3.879,17.663,-2.288,-0.117,1.004,-0.054,0.031,0.580,1.678,100.000,18279.000,1.000
-12.987,-5.123,-3.970,-7.344,5.050,2.167,18.748,-0.563,-0.118,1.006,-0.056,0.000,0.671,1.526,100.000,18280.000,1.000
-14.038,-5.970,-5.314,-7.638,4.595,-0.803,20.889,1.021,-0.119,1.007,-0.059,0.092,0.702,1.526,100.000,18281.000,1.000
-11.827,-5.576,-5.011,-6.791,6.505,-3.238,24.683,2.735,-0.119,1.008,-0.061,0.092,0.732,1.404,100.000,18282.000,1.000
-6.334,-3.164,-2.484,-4.562,11.086,-3.704,29.922,4.958,-0.119,1.010,-0.060,0.031,0.824,1.465,100.000,18283.000,1.000
0.424,0.514,1.313,-1.706,16.643,-2.186,34.701,7.170,-0.117,1.011,-0.056,-0.061,0.793,1.373,100.000,18284.000,1.000
4.757,3.222,3.999,0.141,19.474,-0.359,35.492,7.384,-0.112,1.010,-0.056,-0.183,0.916,1.282,100.000,18285.000,1.000
3.081,2.751,3.311,-0.406,15.928,-0.711,29.016,3.388,-0.110,1.009,-0.057,-0.183,0.977,1.221,100.000,18286.000,1.000
-5.636,-1.319,-1.106,-3.454,5.407,-4.843,14.980,-5.122,-0.108,1.009,-0.060,-0.275,1.099,1.221,100.000,18287.000,1.000
-17.898,-6.868,-6.951,-7.594,-8.081,-11.852,-2.268,-15.501,-0.107,1.010,-0.059,-0.214,1.129,1.190,100.000,18288.000,1.000
-26.878,-10.404,-10.608,-10.692,-18.025,-18.609,-15.608,-23.564,-0.105,1.009,-0.057,-0.305,1.373,1.282,100.000,18289.000,1.000
-27.117,-9.549,-9.746,-11.281,-19.865,-22.062,-19.774,-26.409,-0.107,1.009,-0.060,-0.305,1.617,1.282,100.000,18290.000,1.000
-18.265,-4.563,-4.767,-9.330,-13.609,-21.236,-14.461,-23.905,-0.109,1.010,-0.060,-0.244,1.740,1.282,100.000,18291.000,1.000
-4.522,2.235,1.905,-5.916,-2.943,-17.417,-3.704,-18.135,-0.113,1.011,-0.063,-0.366,1.892,1.404,100.000,18292.000,1.000
8.687,8.051,7.466,-2.500,7.405,-12.948,7.006,-11.979,-0.114,1.007,-0.062,-0.305,2.014,1.465,100.000,18293.000,1.000
17.520,10.952,10.089,-0.288,14.037,-9.697,13.664,-7.688,-0.115,1.006,-0.059,-0.275,2.045,1.526,100.000,18294.000,1.000
21.110,10.645,9.622,0.320,16.062,-8.167,15.342,-5.752,-0.116,1.004,-0.059,-0.275,2.075,1.434,100.000,18295.000,1.000
23.845,8.669,7.797,-0.052,15.552,-7.541,14.408,-3.748,-0.117,1.005,-0.060,-0.153,2.045,1.465,100.000,18296.000,1.000
37.823,7.749,7.800,-0.064,17.442,-6.206,15.763,4.115,-0.120,1.006,-0.058,-0.061,1.984,1.495,100.000,18297.000,1.000
75.125,9.831,12.091,1.330,26.304,-2.905,23.749,22.654,-0.120,1.007,-0.059,0.000,1.892,1.556,100.000,18298.000,1.000
128.022,13.814,19.132,3.696,40.041,1.511,36.981,47.003,-0.122,1.009,-0.054,0.031,1.770,1.556,100.000,18299.000,1.000
164.796,16.189,23.726,5.470,49.221,4.266,47.616,62.508,-0.120,1.008,-0.056,0.061,1.648,1.617,100.000,18300.000,1.000
159.608,15.048,22.583,6.044,46.738,3.973,48.931,59.347,-0.119,1.005,-0.057,0.153,1.434,1.587,100.000,18301.000,1.000
120.042,12.125,17.868,6.498,35.587,2.581,42.061,43.095,-0.116,1.003,-0.054,0.031,1.343,1.648,100.000,18302.000,1.000
72.660,9.873,13.509,7.659,23.471,2.546,32.499,25.553,-0.116,1.002,-0.056,0.061,1.282,1.648,100.000,18303.000,1.000
31.821,8.456,10.483,8.764,13.545,3.515,22.802,11.105,-0.113,1.002,-0.059,0.092,1.312,1.801,100.000,18304.000,1.000
-2.819,6.932,7.805,8.813,4.726,3.409,12.441,-1.879,-0.113,1.002,-0.060,0.061,1.160,1.831,100.000,18305.000,1.000
-28.939,5.385,5.562,7.920,-2.577,1.454,2.296,-12.471,-0.112,1.005,-0.059,0.000,1.221,1.892,100.000,18306.000,1.000
-40.511,4.281,4.373,6.601,-6.253,-1.427,-4.975,-17.786,-0.111,1.006,-0.058,0.031,1.160,1.984,100.000,18307.000,1.000
-40.631,3.096,3.477,4.861,-6.473,-4.291,-8.368,-18.939,-0.111,1.007,-0.059,0.061,1.099,2.136,100.000,18308.000,1.000
-40.460,1.135,1.682,2.777,-5.798,-6.754,-9.344,-19.927,-0.111,1.005,-0.061,0.122,1.038,2.289,100.000,18309.000,1.000
-45.201,-0.971,-0.551,1.246,-5.740,-8.283,-9.491,-21.815,-0.110,1.009,-0.063,0.122,1.099,2.441,100.000,18310.000,1.000
-50.986,-1.867,-1.709,1.217,-6.024,-8.323,-9.588,-22.581,-0.113,1.010,-0.057,0.031,1.099,2.441,100.000,18311.000,1.000
-54.734,-1.247,-1.405,2.491,-6.711,-7.287,-10.588,-21.637,-0.114,1.011,-0.060,0.031,1.099,2.533,100.000,18312.000,1.000
-57.968,0.017,-0.522,3.931,-8.326,-6.221,-13.229,-20.563,-0.116,1.012,-0.063,-0.031,1.099,2.563,100.000,18313.000,1.000
-60.869,1.138,0.391,4.617,-10.018,-5.298,-16.545,-19.831,-0.119,1.010,-0.060,0.000,1.099,2.563,100.000,18314.000,1.000
-60.318,1.904,1.545,4.399,-9.807,-3.679,-18.371,-18.027,-0.122,1.011,-0.058,-0.061,0.946,2.533,100.000,18315.000,1.000
-55.406,2.205,2.885,3.572,-7.061,-0.990,-17.743,-14.552,-0.128,1.010,-0.058,-0.061,0.763,2.502,100.000,18316.000,1.000
-49.934,1.878,3.719,2.460,-3.500,2.085,-15.901,-10.931,-0.131,1.013,-0.062,-0.092,0.549,2.380,100.000,18317.000,1.000
-47.747,1.241,3.739,1.543,-1.171,4.884,-14.431,-8.740,-0.132,1.012,-0.058,0.000,0.305,2.136,100.000,18318.000,1.000
-48.430,1.290,3.711,1.672,-0.327,7.611,-13.252,-7.619,-0.133,1.011,-0.059,-0.031,0.031,1.923,100.000,18319.000,1.000
-48.727,2.787,4.505,3.467,-0.048,10.691,-11.352,-6.123,-0.135,1.013,-0.058,-0.061,-0.275,1.648,100.000,18320.000,1.000
-46.365,5.270,5.836,6.492,-0.031,13.932,-8.757,-3.659,-0.135,1.012,-0.058,-0.153,-0.641,1.312,100.000,18321.000,1.000
-42.057,7.205,6.377,9.314,-0.945,16.591,-6.834,-1.027,-0.131,1.014,-0.057,-0.214,-0.885,0.977,100.000,18322.000,1.000
-38.709,7.036,4.859,10.352,-3.597,17.936,-7.125,0.417,-0.129,1.017,-0.056,-0.275,-0.977,0.763,100.000,18323.000,1.000
-38.436,4.237,1.095,8.812,-8.132,17.856,-10.240,0.050,-0.125,1.020,-0.055,-0.427,-1.221,0.519,100.000,18324.000,1.000
-40.469,-0.428,-3.822,5.098,-13.713,17.155,-15.442,-1.453,-0.125,1.021,-0.059,-0.580,-1.282,0.366,100.000,18325.000,1.000
-42.886,-5.499,-8.320,0.485,-18.938,16.899,-21.130,-3.070,-0.121,1.022,-0.054,-0.732,-1.312,0.336,100.000,18326.000,1.000
-45.151,-9.496,-11.272,-3.437,-22.643,17.441,-25.812,-4.472,-0.120,1.023,-0.052,-0.977,-1.465,0.336,100.000,18327.000,1.000
-46.635,-11.199,-12.065,-5.276,-24.004,18.336,-28.406,-5.322,-0.115,1.024,-0.055,-1.160,-1.434,0.305,100.000,18328.000,1.000
-44.345,-10.033,-10.478,-4.481,-22.253,18.936,-28.013,-4.413,-0.115,1.022,-0.058,-1.373,-1.312,0.305,100.000,18329.000,1.000
-36.198,-6.719,-7.221,-1.872,-17.522,18.677,-24.569,-1.157,-0.113,1.022,-0.056,-1.617,-1.251,0.458,100.000,18330.000,1.000
-25.733,-3.249,-4.167,0.687,-11.923,17.186,-19.886,2.615,-0.112,1.022,-0.052,-1.892,-1.221,0.580,100.000,18331.000,1.000
-19.078,-1.581,-2.962,1.531,-8.083,14.713,-16.638,4.516,-0.115,1.019,-0.050,-1.953,-1.099,0.671,100.000,18332.000,1.000
-17.656,-2.077,-3.288,0.459,-6.141,12.311,-15.612,5.140,-0.116,1.014,-0.051,-1.953,-1.099,0.793,100.000,18333.000,1.000
-17.978,-3.426,-3.394,-1.227,-4.045,11.039,-15.272,7.010,-0.116,1.012,-0.052,-2.106,-1.068,0.916,100.000,18334.000,1.000
-17.713,-4.057,-2.350,-1.984,-1.120,10.893,-14.454,10.030,-0.118,1.009,-0.053,-2.136,-0.977,1.099,100.000,18335.000,1.000
-17.066,-3.166,-0.663,-1.170,1.145,11.005,-13.562,11.519,-0.118,1.004,-0.053,-2.075,-0.916,1.068,100.000,18336.000,1.000
-14.653,-0.550,1.180,0.886,2.234,11.051,-12.507,10.936,-0.118,1.002,-0.055,-1.923,-0.946,1.068,100.000,18337.000,1.000
-8.000,3.386,3.098,3.159,3.454,11.513,-10.068,10.498,-0.119,1.000,-0.055,-1.831,-0.916,1.007,100.000,18338.000,1.000
0.658,7.059,4.095,4.121,4.736,12.188,-6.567,10.514,-0.119,1.001,-0.055,-1.678,-0.916,0.977,100.000,18339.000,1.000
4.874,8.312,2.401,2.579,3.716,11.743,-4.786,8.412,-0.118,0.999,-0.054,-1.587,-0.977,0.885,100.000,18340.000,1.000
2.405,6.324,-2.291,-1.143,-0.518,9.362,-6.532,3.615,-0.117,0.998,-0.050,-1.373,-0.885,0.824,100.000,18341.000,1.000
-1.873,2.368,-8.024,-5.235,-5.348,5.866,-10.076,-0.579,-0.114,1.000,-0.051,-1.251,-0.824,0.732,100.000,18342.000,1.000
-3.335,-1.498,-12.516,-7.810,-7.812,2.705,-12.420,-1.530,-0.113,1.003,-0.050,-1.160,-0.793,0.702,100.000,18343.000,1.000
-2.592,-3.893,-14.803,-8.056,-7.770,0.441,-12.494,-0.247,-0.111,1.002,-0.049,-1.068,-0.641,0.671,100.000,18344.000,1.000
-1.004,-4.417,-14.860,-6.310,-6.697,-1.406,-10.979,1.471,-0.111,1.001,-0.053,-0.946,-0.671,0.641,100.000,18345.000,1.000
2.760,-3.642,-13.177,-3.794,-5.609,-3.686,-8.870,3.352,-0.109,1.000,-0.056,-0.885,-0.488,0.732,100.000,18346.000,1.000
8.226,-3.034,-11.133,-2.221,-5.477,-7.100,-7.513,4.681,-0.108,1.002,-0.056,-0.763,-0.397,0.763,100.000,18347.000,1.000
10.852,-3.815,-10.277,-2.596,-7.297,-11.511,-8.136,3.682,-0.108,1.001,-0.052,-0.458,-0.183,0.793,100.000,18348.000,1.000
8.562,-5.560,-10.565,-4.101,-10.298,-15.554,-10.068,0.696,-0.110,1.002,-0.053,-0.366,-0.031,0.763,100.000,18349.000,1.000
5.869,-6.839,-10.530,-4.970,-12.059,-17.874,-11.025,-1.191,-0.110,1.003,-0.056,-0.183,0.183,0.763,100.000,18350.000,1.000
7.387,-7.128,-9.411,-4.474,-11.461,-18.786,-9.889,-0.335,-0.110,1.004,-0.052,-0.092,0.275,0.885,100.000,18351.000,1.000
11.627,-7.044,-7.879,-3.336,-9.759,-19.842,-7.644,1.298,-0.112,1.006,-0.054,-0.061,0.275,0.854,100.000,18352.000,1.000
15.477,-6.819,-6.465,-2.400,-8.102,-21.817,-5.174,1.433,-0.112,1.006,-0.053,-0.092,0.366,0.824,100.000,18353.000,1.000
20.578,-5.592,-4.498,-1.590,-5.893,-23.921,-1.881,0.481,-0.115,1.007,-0.055,-0.061,0.458,0.824,100.000,18354.000,1.000
29.465,-2.687,-1.235,-0.337,-2.478,-24.939,2.699,-0.019,-0.114,1.009,-0.053,-0.031,0.366,0.824,100.000,18355.000,1.000
38.647,1.110,2.754,1.486,1.288,-24.170,7.438,0.179,-0.115,1.010,-0.050,0.031,0.427,0.793,100.000,18356.000,1.000
42.363,4.307,6.150,3.482,4.424,-21.051,11.001,0.682,-0.116,1.011,-0.049,-0.031,0.519,0.763,100.000,18357.000,1.000
41.131,6.120,8.186,5.158,7.304,-15.304,13.478,1.818,-0.116,1.010,-0.048,-0.092,0.519,0.671,100.000,18358.000,1.000
39.927,6.420,8.577,5.910,10.376,-8.204,15.434,3.629,-0.115,1.010,-0.052,-0.153,0.519,0.549,100.000,18359.000,1.000
39.602,5.143,6.994,5.064,12.613,-2.469,16.479,4.883,-0.115,1.010,-0.054,-0.153,0.580,0.366,100.000,18360.000,1.000
36.584,2.658,3.603,2.507,12.633,-0.075,15.944,4.722,-0.115,1.010,-0.055,-0.183,0.641,0.305,100.000,18361.000,1.000
30.422,0.203,-0.358,-0.968,10.685,-0.554,14.303,4.373,-0.114,1.009,-0.053,-0.214,0.793,0.183,100.000,18362.000,1.000
25.538,-0.807,-3.198,-4.144,8.598,-1.523,13.047,5.830,-0.116,1.008,-0.052,-0.275,0.793,0.244,100.000,18363.000,1.000
24.725,0.115,-3.899,-6.109,7.999,-0.769,13.323,9.306,-0.116,1.011,-0.055,-0.275,0.885,0.122,100.000,18364.000,1.000
25.806,2.273,-2.522,-6.615,9.044,2.026,14.974,13.018,-0.116,1.010,-0.052,-0.397,0.946,0.122,100.000,18365.000,1.000
25.883,4.509,0.204,-5.918,10.567,5.481,16.651,15.131,-0.115,1.009,-0.052,-0.305,0.885,0.061,100.000,18366.000,1.000
24.739,6.046,3.419,-4.345,10.995,8.107,16.667,14.940,-0.115,1.008,-0.055,-0.275,0.824,-0.061,100.000,18367.000,1.000
22.621,6.669,6.360,-2.165,9.318,9.284,14.087,12.495,-0.113,1.009,-0.055,-0.305,0.946,-0.092,100.000,18368.000,1.000
18.477,6.453,8.441,0.166,5.780,9.111,9.397,8.371,-0.110,1.008,-0.052,-0.214,1.099,0.000,100.000,18369.000,1.000
12.627,5.697,9.499,2.008,1.920,8.208,4.349,4.094,-0.109,1.009,-0.051,-0.183,1.160,0.092,100.000,18370.000,1.000
8.126,4.867,9.828,2.888,-0.394,7.498,0.922,1.543,-0.109,1.010,-0.052,-0.183,1.251,0.122,100.000,18371.000,1.000
6.927,4.212,9.754,2.665,-0.344,7.453,-0.002,1.311,-0.109,1.011,-0.049,-0.214,1.465,0.153,100.000,18372.000,1.000
7.229,3.641,9.411,1.578,1.600,7.742,1.100,2.421,-0.111,1.011,-0.053,-0.305,1.556,0.305,100.000,18373.000,1.000
6.883,3.244,9.114,0.342,4.745,7.960,3.405,3.840,-0.111,1.009,-0.054,-0.488,1.617,0.427,100.000,18374.000,1.000
6.860,3.590,9.530,-0.061,8.830,8.314,6.572,5.469,-0.111,1.008,-0.053,-0.519,1.770,0.549,100.000,18375.000,1.000
8.895,5.256,11.188,1.094,13.551,9.360,10.487,7.543,-0.113,1.005,-0.059,-0.427,1.892,0.641,100.000,18376.000,1.000
11.885,8.182,13.951,3.886,17.990,11.432,14.539,9.764,-0.114,1.005,-0.059,-0.336,1.984,0.702,100.000,18377.000,1.000
13.014,11.527,16.963,7.685,20.780,14.535,17.359,11.309,-0.113,1.003,-0.058,-0.183,2.075,0.824,100.000,18378.000,1.000
10.928,13.994,19.000,11.352,20.769,18.492,17.335,11.326,-0.113,1.003,-0.057,-0.122,2.136,0.793,100.000,18379.000,1.000
5.972,14.468,19.004,13.641,17.672,22.728,13.708,9.087,-0.116,1.000,-0.058,0.031,2.167,0.885,100.000,18380.000,1.000
-1.133,12.711,16.658,13.727,12.342,26.125,7.365,3.913,-0.117,0.999,-0.060,0.183,2.167,0.946,100.000,18381.000,1.000
-8.720,9.609,12.679,11.650,6.633,27.702,0.658,-4.233,-0.117,1.000,-0.060,0.275,2.228,1.007,100.000,18382.000,1.000
-13.356,6.647,8.555,8.325,2.918,27.374,-3.483,-13.790,-0.119,1.001,-0.060,0.458,2.197,1.007,100.000,18383.000,1.000
-12.063,4.942,5.639,5.076,2.937,25.643,-2.905,-21.987,-0.119,1.003,-0.058,0.519,2.014,0.946,100.000,18384.000,1.000
-5.724,4.481,4.142,2.882,6.249,22.596,2.100,-26.735,-0.119,1.006,-0.056,0.610,2.014,1.038,100.000,18385.000,1.000
1.064,4.175,3.047,1.875,10.086,17.611,8.350,-27.817,-0.121,1.007,-0.056,0.671,1.953,0.977,100.000,18386.000,1.000
3.926,2.745,1.193,1.484,11.384,10.243,11.771,-26.237,-0.119,1.010,-0.057,0.763,1.984,1.007,100.000,18387.000,1.000
1.647,-0.364,-1.750,0.991,8.833,1.199,10.107,-23.282,-0.117,1.014,-0.056,0.702,1.953,0.977,100.000,18388.000,1.000
-4.229,-4.673,-5.210,0.032,3.162,-7.310,3.920,-20.147,-0.117,1.017,-0.054,0.549,1.953,0.977,100.000,18389.000,1.000
-10.754,-8.808,-8.027,-1.111,-3.460,-11.907,-4.006,-17.195,-0.116,1.018,-0.055,0.488,1.923,1.068,100.000,18390.000,1.000
-14.514,-11.104,-8.889,-1.694,-8.245,-9.850,-10.043,-13.453,-0.117,1.021,-0.057,0.275,1.953,1.190,100.000,18391.000,1.000
-13.223,-10.634,-7.159,-1.210,-9.261,-1.471,-11.636,-7.778,-0.116,1.020,-0.057,0.153,1.923,1.160,100.000,18392.000,1.000
-7.192,-7.781,-3.449,0.116,-6.582,9.481,-8.593,-0.420,-0.117,1.021,-0.053,-0.061,1.892,1.190,100.000,18393.000,1.000
1.229,-3.832,0.820,1.585,-1.868,18.094,-2.606,7.108,-0.118,1.021,-0.054,-0.305,1.801,1.282,100.000,18394.000,1.000
9.529,-0.125,4.402,2.638,2.929,20.979,4.169,13.366,-0.119,1.022,-0.054,-0.519,1.709,1.312,100.000,18395.000,1.000
15.997,2.437,6.717,3.152,6.229,17.534,9.804,17.533,-0.117,1.019,-0.052,-0.580,1.709,1.404,100.000,18396.000,1.000
19.333,3.305,7.594,3.100,6.816,9.355,12.445,18.855,-0.118,1.018,-0.056,-0.854,1.617,1.526,100.000,18397.000,1.000
18.640,2.216,7.046,2.194,4.122,-1.070,10.675,16.576,-0.117,1.013,-0.060,-0.916,1.556,1.648,100.000,18398.000,1.000
14.362,-0.470,5.474,0.179,-1.126,-11.066,4.634,10.974,-0.118,1.009,-0.057,-0.946,1.526,1.770,100.000,18399.000,1.000
8.483,-3.723,3.656,-2.685,-7.042,-18.057,-3.758,3.893,-0.119,1.006,-0.053,-0.916,1.495,1.831,100.000,18400.000,1.000
3.211,-6.492,2.190,-5.730,-11.805,-20.269,-12.083,-2.175,-0.116,1.006,-0.054,-0.916,1.404,1.831,100.000,18401.000,1.000
-0.341,-8.288,1.137,-8.281,-14.699,-17.734,-18.698,-5.394,-0.116,1.005,-0.058,-0.793,1.282,1.923,100.000,18402.000,1.000
-2.355,-9.148,0.253,-9.888,-16.054,-12.136,-22.975,-5.171,-0.117,1.008,-0.055,-0.916,1.282,1.923,100.000,18403.000,1.000
-3.836,-9.416,-0.716,-10.463,-16.559,-5.212,-25.051,-2.015,-0.119,1.006,-0.055,-0.977,1.373,1.953,100.000,18404.000,1.000
-5.813,-9.467,-1.871,-10.190,-16.552,2.048,-25.379,3.032,-0.119,1.006,-0.053,-0.916,1.251,1.953,100.000,18405.000,1.000
-8.220,-9.228,-2.851,-9.127,-15.480,8.523,-24.041,9.089,-0.121,1.005,-0.055,-0.793,1.190,1.892,100.000,18406.000,1.000
-9.696,-8.117,-2.841,-7.031,-12.241,12.529,-20.677,15.604,-0.120,1.006,-0.056,-0.763,1.099,1.953,100.000,18407.000,1.000
-9.271,-5.796,-1.372,-3.735,-6.637,12.710,-15.619,21.776,-0.120,1.004,-0.053,-0.824,0.916,1.801,100.000,18408.000,1.000
-7.937,-2.871,0.872,0.366,-0.436,8.919,-10.690,26.095,-0.118,1.004,-0.053,-0.671,0.732,1.923,100.000,18409.000,1.000
-7.904,-0.588,2.354,4.270,3.516,2.371,-8.214,26.923,-0.116,1.005,-0.054,-0.671,0.671,1.953,100.000,18410.000,1.000
-10.624,0.030,1.846,6.753,3.445,-4.765,-9.150,23.687,-0.116,1.007,-0.052,-0.519,0.641,1.953,100.000,18411.000,1.000
-15.695,-1.236,-0.678,6.959,0.025,-10.189,-12.274,17.540,-0.112,1.008,-0.053,-0.458,0.519,2.045,100.000,18412.000,1.000
-21.095,-3.747,-4.042,4.948,-4.141,-12.458,-15.115,10.790,-0.112,1.009,-0.055,-0.366,0.519,2.075,100.000,18413.000,1.000
-24.370,-6.513,-6.754,1.639,-6.438,-11.669,-15.804,5.473,-0.114,1.010,-0.054,-0.366,0.397,2.197,100.000,18414.000,1.000
-24.094,-8.809,-7.977,-1.821,-5.849,-9.278,-14.169,2.324,-0.115,1.011,-0.055,-0.305,0.488,2.258,100.000,18415.000,1.000
-20.449,-10.235,-7.666,-4.537,-3.016,-7.130,-11.170,0.917,-0.116,1.012,-0.057,-0.336,0.336,2.289,100.000,18416.000,1.000
-14.450,-10.306,-5.988,-5.858,0.871,-6.347,-7.503,0.572,-0.119,1.013,-0.054,-0.397,0.214,2.319,100.000,18417.000,1.000
-6.839,-8.313,-2.940,-5.252,5.154,-6.654,-2.848,1.163,-0.122,1.010,-0.052,-0.336,0.031,2.289,100.000,18418.000,1.000
1.786,-3.965,1.236,-2.608,9.682,-6.833,3.434,2.998,-0.121,1.010,-0.049,-0.458,-0.122,2.228,100.000,18419.000,1.000
9.961,1.667,5.285,1.123,13.781,-6.275,10.782,5.734,-0.123,1.011,-0.052,-0.427,-0.275,2.258,100.000,18420.000,1.000
15.572,6.285,7.192,4.014,15.926,-5.720,17.079,7.849,-0.122,1.011,-0.050,-0.336,-0.549,2.167,100.000,18421.000,1.000
17.393,7.834,5.569,4.353,14.842,-6.095,20.046,7.673,-0.124,1.010,-0.051,-0.183,-0.763,2.045,100.000,18422.000,1.000
15.769,5.832,0.652,1.783,10.602,-7.260,18.675,4.638,-0.121,1.010,-0.055,-0.305,-0.977,1.892,100.000,18423.000,1.000
12.207,1.586,-5.825,-2.590,4.821,-8.171,13.821,-0.383,-0.120,1.009,-0.055,-0.305,-1.099,1.770,100.000,18424.000,1.000
8.737,-2.613,-11.567,-6.992,-0.023,-7.868,7.912,-5.489,-0.119,1.006,-0.055,-0.061,-1.373,1.740,100.000,18425.000,1.000
6.529,-4.974,-15.088,-10.063,-2.367,-6.458,3.170,-8.979,-0.115,1.005,-0.056,0.031,-1.526,1.740,100.000,18426.000,1.000
4.619,-5.370,-16.584,-11.464,-3.138,-5.380,-0.410,-10.743,-0.112,1.003,-0.056,0.214,-1.709,1.617,100.000,18427.000,1.000
1.141,-4.906,-17.188,-11.520,-4.618,-6.250,-4.351,-11.884,-0.110,1.002,-0.053,0.336,-1.740,1.587,100.000,18428.000,1.000
-4.180,-4.561,-17.537,-10.511,-7.717,-9.300,-9.078,-12.965,-0.107,1.001,-0.056,0.458,-1.709,1.495,100.000,18429.000,1.000
-9.475,-4.560,-17.419,-8.599,-11.107,-13.173,-13.134,-13.383,-0.107,1.002,-0.059,0.641,-1.678,1.617,100.000,18430.000,1.000
-12.045,-4.617,-16.295,-6.155,-12.531,-15.916,-14.506,-12.255,-0.107,1.005,-0.058,0.732,-1.648,1.495,100.000,18431.000,1.000
-10.074,-4.266,-13.728,-3.674,-10.469,-16.106,-12.050,-9.233,-0.108,1.007,-0.059,0.793,-1.617,1.465,100.000,18432.000,1.000
-4.100,-3.242,-9.849,-1.576,-5.322,-13.735,-6.378,-4.868,-0.108,1.008,-0.057,0.793,-1.617,1.404,100.000,18433.000,1.000
2.961,-1.812,-5.648,-0.229,0.635,-10.183,0.212,-0.553,-0.110,1.009,-0.058,0.824,-1.587,1.343,100.000,18434.000,1.000
7.929,-0.501,-2.383,0.221,4.979,-6.912,5.341,2.303,-0.110,1.009,-0.060,0.916,-1.587,1.282,100.000,18435.000,1.000
9.627,0.523,-0.592,0.162,6.975,-4.309,8.388,3.360,-0.110,1.010,-0.058,0.854,-1.465,1.343,100.000,18436.000,1.000
8.837,1.516,0.059,0.341,7.447,-2.213,10.236,3.323,-0.110,1.010,-0.058,0.854,-1.495,1.251,100.000,18437.000,1.000
6.847,2.719,0.188,1.260,7.251,-1.002,11.532,2.806,-0.109,1.011,-0.054,0.854,-1.495,1.190,100.000,18438.000,1.000
4.761,4.139,0.296,2.831,6.436,-1.465,12.025,1.662,-0.109,1.007,-0.057,0.916,-1.251,1.129,100.000,18439.000,1.000
3.129,5.390,0.437,4.429,4.425,-4.124,11.117,-0.731,-0.106,1.007,-0.059,0.793,-1.251,1.007,100.000,18440.000,1.000
1.421,5.546,-0.094,5.087,0.435,-9.060,8.256,-4.962,-0.103,1.004,-0.058,0.702,-1.190,0.946,100.000,18441.000,1.000
-1.338,3.689,-2.340,3.900,-5.772,-15.675,3.292,-11.034,-0.103,1.005,-0.061,0.671,-1.068,0.885,100.000,18442.000,1.000
-5.061,-0.154,-6.594,0.657,-13.058,-22.255,-2.817,-17.750,-0.103,1.004,-0.060,0.641,-0.732,0.854,100.000,18443.000,1.000
-8.343,-4.758,-11.827,-3.767,-19.056,-26.355,-7.959,-22.783,-0.104,1.004,-0.061,0.641,-0.610,0.824,100.000,18444.000,1.000
-9.868,-8.443,-16.354,-7.769,-21.702,-26.279,-10.218,-24.015,-0.105,1.005,-0.060,0.610,-0.427,0.641,100.000,18445.000,1.000
-9.577,-10.106,-18.944,-9.976,-20.672,-22.315,-9.323,-21.055,-0.106,1.008,-0.062,0.580,-0.153,0.580,100.000,18446.000,1.000
-8.295,-9.716,-19.308,-10.023,-17.266,-16.467,-6.533,-15.416,-0.109,1.008,-0.057,0.458,0.031,0.427,100.000,18447.000,1.000
-6.741,-8.077,-17.897,-8.565,-13.220,-11.126,-3.466,-9.489,-0.111,1.007,-0.056,0.458,0.092,0.336,100.000,18448.000,1.000
-5.187,-6.135,-15.391,-6.571,-9.756,-7.760,-1.182,-5.275,-0.111,1.010,-0.060,0.366,0.275,0.183,100.000,18449.000,1.000
-3.629,-4.321,-12.173,-4.596,-7.228,-6.352,0.250,-3.429,-0.113,1.010,-0.060,0.214,0.336,0.031,100.000,18450.000,1.000
-1.766,-2.332,-8.118,-2.596,-5.171,-5.724,1.719,-3.082,-0.115,1.010,-0.062,0.061,0.366,-0.092,100.000,18451.000,1.000
1.147,0.592,-2.836,-0.206,-2.674,-4.390,4.457,-2.609,-0.117,1.012,-0.062,0.000,0.336,-0.214,100.000,18452.000,1.000
5.892,5.090,3.818,2.961,1.025,-1.295,9.243,-0.729,-0.118,1.011,-0.060,-0.061,0.488,-0.244,100.000,18453.000,1.000
12.513,11.094,11.324,7.135,6.040,3.863,16.006,2.884,-0.119,1.013,-0.058,-0.214,0.397,-0.244,100.000,18454.000,1.000
20.053,17.600,18.409,12.156,11.662,10.498,23.809,7.549,-0.116,1.013,-0.060,-0.244,0.336,-0.275,100.000,18455.000,1.000
26.871,22.962,23.425,17.196,16.429,17.156,30.899,11.761,-0.114,1.012,-0.063,-0.397,0.458,-0.305,100.000,18456.000,1.000
31.120,25.678,25.131,20.895,18.615,22.003,35.106,13.737,-0.115,1.012,-0.061,-0.519,0.458,-0.336,100.000,18457.000,1.000
31.363,25.091,23.286,21.979,17.063,23.604,34.745,12.282,-0.115,1.010,-0.061,-0.580,0.610,-0.275,100.000,18458.000,1.000
27.166,21.395,18.526,19.834,11.669,21.342,29.287,7.199,-0.115,1.011,-0.057,-0.763,0.458,-0.183,100.000,18459.000,1.000
19.349,15.316,11.910,14.774,3.309,15.441,19.454,-0.853,-0.113,1.011,-0.059,-0.793,0.580,-0.122,100.000,18460.000,1.000
9.744,7.938,4.646,7.882,-6.364,6.903,7.012,-10.542,-0.113,1.010,-0.058,-0.916,0.641,-0.122,100.000,18461.000,1.000
0.373,0.464,-2.132,0.501,-15.340,-2.824,-5.746,-20.122,-0.112,1.009,-0.054,-0.977,0.732,0.061,100.000,18462.000,1.000
-7.229,-6.042,-7.546,-6.149,-21.947,-12.182,-16.663,-27.823,-0.110,1.010,-0.056,-0.977,0.885,0.336,100.000,18463.000,1.000
-11.975,-10.654,-10.910,-10.943,-25.230,-19.413,-23.977,-31.955,-0.108,1.011,-0.059,-0.946,0.977,0.427,100.000,18464.000,1.000
-13.345,-12.621,-11.738,-12.893,-24.994,-22.690,-26.564,-31.193,-0.106,1.008,-0.057,-0.916,1.160,0.580,100.000,18465.000,1.000
-12.053,-11.857,-10.199,-11.741,-22.017,-21.215,-24.651,-25.564,-0.109,1.006,-0.059,-0.946,1.373,0.824,100.000,18466.000,1.000
-10.000,-9.360,-7.407,-8.486,-17.990,-16.251,-20.078,-17.080,-0.112,1.006,-0.054,-0.916,1.404,0.824,100.000,18467.000,1.000
-9.017,-6.774,-4.868,-4.977,-14.562,-10.576,-15.205,-8.781,-0.117,1.007,-0.055,-0.885,1.587,0.885,100.000,18468.000,1.000
-9.821,-5.376,-3.490,-2.801,-12.312,-6.736,-11.397,-2.927,-0.118,1.005,-0.056,-0.885,1.648,0.885,100.000,18469.000,1.000
-12.237,-5.413,-3.037,-2.419,-10.535,-5.601,-8.453,0.204,-0.118,1.005,-0.056,-0.916,1.709,0.885,100.000,18470.000,1.000
-15.687,-6.101,-2.426,-3.128,-7.836,-6.109,-5.138,2.130,-0.122,1.004,-0.058,-0.793,1.770,1.038,100.000,18471.000,1.000
-18.773,-6.219,-0.706,-3.774,-3.330,-6.223,-0.451,4.359,-0.120,1.006,-0.058,-0.641,1.770,1.038,100.000,18472.000,1.000
-19.278,-4.899,2.154,-3.559,2.371,-4.323,5.297,6.761,-0.120,1.006,-0.057,-0.702,1.648,0.885,100.000,18473.000,1.000
-15.836,-1.893,5.612,-2.116,7.850,0.153,10.902,8.480,-0.120,1.008,-0.056,-0.793,1.648,0.885,100.000,18474.000,1.000
-9.300,2.717,9.461,0.862,12.498,6.994,15.653,9.822,-0.119,1.010,-0.051,-0.824,1.465,0.793,100.000,18475.000,1.000
-2.177,8.373,13.724,5.402,16.488,15.262,19.376,11.684,-0.119,1.010,-0.053,-0.854,1.465,0.854,100.000,18476.000,1.000
2.752,13.495,17.631,10.572,19.246,22.900,21.116,13.387,-0.117,1.007,-0.057,-0.824,1.404,0.793,100.000,18477.000,1.000
3.640,15.974,19.641,14.737,19.394,27.414,19.354,12.875,-0.112,1.005,-0.057,-0.885,1.434,0.854,100.000,18478.000,1.000
0.507,14.755,18.891,16.785,16.566,27.653,14.145,9.343,-0.111,1.002,-0.056,-0.763,1.526,0.854,100.000,18479.000,1.000
-4.738,10.644,16.070,16.762,12.200,24.551,7.942,4.378,-0.110,1.003,-0.055,-0.854,1.556,1.068,100.000,18480.000,1.000
-9.500,5.504,12.648,15.314,8.171,19.998,3.659,0.301,-0.107,1.003,-0.055,-0.793,1.740,1.160,100.000,18481.000,1.000
-12.052,0.820,9.572,12.831,5.249,15.374,2.386,-1.772,-0.108,1.004,-0.057,-0.641,1.862,1.373,100.000,18482.000,1.000
-12.293,-3.040,6.783,9.214,3.074,11.198,3.121,-2.157,-0.107,1.007,-0.057,-0.732,1.984,1.495,100.000,18483.000,1.000
-11.362,-6.478,3.690,4.318,0.958,7.624,4.022,-1.874,-0.111,1.010,-0.059,-0.763,2.014,1.587,100.000,18484.000,1.000
-10.559,-9.831,-0.066,-1.515,-1.581,4.736,3.601,-2.055,-0.111,1.012,-0.058,-0.732,2.136,1.770,100.000,18485.000,1.000
-10.240,-12.833,-4.082,-7.289,-4.599,2.496,1.391,-3.379,-0.113,1.012,-0.055,-0.793,2.136,1.862,100.000,18486.000,1.000
-9.339,-14.667,-7.266,-11.664,-7.762,0.739,-2.000,-5.707,-0.114,1.012,-0.057,-0.763,2.228,1.953,100.000,18487.000,1.000
-6.287,-14.471,-8.477,-13.563,-10.395,-0.664,-5.284,-8.002,-0.116,1.013,-0.055,-0.854,2.136,1.953,100.000,18488.000,1.000
-0.859,-11.902,-7.116,-12.627,-11.256,-1.558,-6.807,-8.289,-0.121,1.015,-0.057,-0.885,2.167,2.045,100.000,18489.000,1.000
5.338,-7.465,-3.486,-9.409,-8.953,-1.594,-5.206,-4.716,-0.124,1.015,-0.056,-0.916,2.075,1.953,100.000,18490.000,1.000
10.439,-2.418,1.114,-5.230,-3.392,-0.718,-0.701,2.262,-0.124,1.017,-0.056,-0.946,1.862,1.923,100.000,18491.000,1.000
13.525,1.867,4.972,-1.492,3.595,0.657,4.596,9.483,-0.128,1.017,-0.057,-0.885,1.495,1.892,100.000,18492.000,1.000
14.036,4.576,6.979,1.030,9.482,2.065,8.180,13.553,-0.127,1.016,-0.057,-0.885,1.282,1.678,100.000,18493.000,1.000
11.195,5.624,7.071,2.305,12.564,3.364,8.623,13.127,-0.124,1.013,-0.056,-0.793,1.068,1.556,100.000,18494.000,1.000
5.046,5.447,5.897,2.729,12.378,4.679,5.741,8.824,-0.123,1.014,-0.057,-0.824,0.916,1.434,100.000,18495.000,1.000
-2.370,4.812,4.398,2.830,9.759,6.147,0.489,2.367,-0.122,1.014,-0.054,-0.793,0.763,1.282,100.000,18496.000,1.000
-7.978,4.575,3.573,3.116,6.775,7.777,-4.973,-3.697,-0.120,1.013,-0.055,-0.824,0.702,1.221,100.000,18497.000,1.000
-10.063,5.235,4.098,3.887,5.547,9.873,-8.277,-6.845,-0.116,1.014,-0.055,-0.824,0.702,1.007,100.000,18498.000,1.000
-9.316,6.589,5.776,5.036,6.384,13.623,-8.700,-6.354,-0.116,1.013,-0.056,-0.793,0.610,0.946,100.000,18499.000,1.000
-7.762,7.867,7.474,6.121,7.467,20.179,-7.724,-3.870,-0.114,1.013,-0.055,-0.763,0.458,0.885,100.000,18500.000,1.000
-7.244,8.207,7.865,6.646,6.796,28.687,-7.467,-1.689,-0.114,1.014,-0.055,-0.732,0.549,0.854,100.000,18501.000,1.000
-8.506,7.160,6.374,6.262,4.163,36.086,-8.741,-0.792,-0.115,1.015,-0.054,-0.793,0.702,0.732,100.000,18502.000,1.000
-10.719,5.024,3.564,4.938,1.168,39.308,-10.570,-0.672,-0.114,1.014,-0.052,-0.885,0.702,0.763,100.000,18503.000,1.000
-11.986,2.686,0.704,3.063,-0.333,37.362,-11.336,-0.467,-0.113,1.013,-0.050,-0.916,0.702,0.732,100.000,18504.000,1.000
-11.024,0.960,-1.101,1.262,0.301,31.585,-10.323,0.223,-0.114,1.010,-0.050,-0.977,0.793,0.732,100.000,18505.000,1.000
-8.300,0.102,-1.520,0.064,2.272,24.437,-8.238,1.353,-0.115,1.009,-0.047,-0.885,0.885,0.671,100.000,18506.000,1.000
-5.380,-0.165,-1.019,-0.371,4.219,17.893,-6.442,2.675,-0.115,1.007,-0.051,-0.732,0.916,0.641,100.000,18507.000,1.000
-3.605,-0.401,-0.472,-0.422,5.098,12.611,-5.948,3.728,-0.117,1.004,-0.052,-0.793,0.854,0.580,100.000,18508.000,1.000
-3.502,-1.172,-0.644,-0.851,4.457,8.476,-7.066,3.905,-0.117,1.001,-0.052,-0.732,0.946,0.580,100.000,18509.000,1.000
-4.809,-2.649,-1.786,-2.146,2.517,5.639,-9.356,3.023,-0.116,0.999,-0.053,-0.580,0.854,0.580,100.000,18510.000,1.000
-6.635,-4.434,-3.586,-4.041,0.235,4.478,-11.636,1.750,-0.116,1.000,-0.054,-0.397,0.824,0.641,100.000,18511.000,1.000
-7.924,-5.997,-5.561,-5.854,-1.158,4.575,-12.537,1.069,-0.117,1.000,-0.054,-0.366,0.854,0.610,100.000,18512.000,1.000
-7.904,-7.084,-7.354,-7.113,-0.877,4.603,-11.353,1.401,-0.116,0.999,-0.057,-0.305,0.854,0.793,100.000,18513.000,1.000
-6.047,-7.519,-8.660,-7.667,1.178,3.550,-8.266,2.497,-0.117,0.999,-0.052,-0.214,0.854,0.824,100.000,18514.000,1.000
-2.272,-7.027,-9.223,-7.509,4.437,1.369,-4.150,3.783,-0.115,0.999,-0.053,-0.031,0.854,0.763,100.000,18515.000,1.000
2.441,-5.525,-9.057,-6.760,7.569,-1.602,-0.509,4.469,-0.114,1.000,-0.056,-0.031,0.916,0.946,100.000,18516.000,1.000
6.213,-3.370,-8.464,-5.691,8.848,-5.107,0.804,3.703,-0.114,1.000,-0.059,0.061,0.977,0.885,100.000,18517.000,1.000
7.481,-1.203,-7.744,-4.625,7.191,-8.878,-1.424,1.123,-0.111,1.001,-0.059,0.244,1.099,0.916,100.000,18518.000,1.000
6.316,0.535,-6.871,-3.791,3.193,-12.419,-6.534,-2.566,-0.111,1.003,-0.056,0.183,1.129,1.038,100.000,18519.000,1.000
4.795,1.989,-5.480,-3.193,-0.873,-14.632,-11.797,-5.705,-0.114,1.005,-0.057,0.305,1.190,1.068,100.000,18520.000,1.000
5.608,3.511,-3.367,-2.652,-2.594,-13.961,-14.019,-6.694,-0.116,1.007,-0.057,0.366,1.160,1.129,100.000,18521.000,1.000
9.792,4.910,-0.971,-1.987,-1.222,-9.792,-11.746,-5.067,-0.115,1.007,-0.060,0.427,1.282,1.160,100.000,18522.000,1.000
15.900,5.435,0.817,-1.183,1.980,-3.846,-6.054,-1.720,-0.118,1.009,-0.059,0.366,1.343,1.251,100.000,18523.000,1.000
21.336,4.506,1.245,-0.451,4.844,0.307,0.432,1.638,-0.118,1.009,-0.057,0.366,1.373,1.251,100.000,18524.000,1.000
24.181,2.209,0.066,-0.214,5.668,-0.549,5.206,3.353,-0.120,1.008,-0.056,0.397,1.282,1.343,100.000,18525.000,1.000
23.961,-0.883,-2.484,-0.944,3.982,-7.219,7.054,2.615,-0.119,1.010,-0.059,0.275,1.312,1.282,100.000,18526.000,1.000
21.453,-4.036,-5.768,-2.817,0.658,-17.578,6.371,-0.071,-0.118,1.012,-0.054,0.275,1.251,1.404,100.000,18527.000,1.000
18.206,-6.486,-8.829,-5.430,-2.519,-27.669,4.781,-3.100,-0.118,1.014,-0.055,0.092,1.160,1.373,100.000,18528.000,1.000
15.793,-7.604,-10.738,-7.973,-3.761,-33.702,4.189,-4.734,-0.120,1.014,-0.056,0.061,1.099,1.404,100.000,18529.000,1.000
15.117,-7.071,-10.956,-9.572,-2.248,-33.714,5.719,-4.054,-0.121,1.015,-0.056,-0.092,1.068,1.465,100.000,18530.000,1.000
15.968,-5.044,-9.531,-9.605,1.356,-28.149,9.006,-1.311,-0.119,1.015,-0.059,-0.183,0.977,1.495,100.000,18531.000,1.000
16.626,-2.474,-7.309,-8.174,4.914,-19.714,11.999,2.122,-0.118,1.014,-0.057,-0.366,1.038,1.373,100.000,18532.000,1.000
14.435,-0.986,-5.751,-6.323,5.740,-12.411,11.886,4.427,-0.115,1.013,-0.059,-0.366,1.038,1.404,100.000,18533.000,1.000
8.064,-1.715,-5.878,-5.312,2.464,-9.381,7.254,4.590,-0.115,1.013,-0.056,-0.519,1.007,1.434,100.000,18534.000,1.000
-0.743,-4.213,-7.355,-5.601,-3.669,-11.066,-0.320,3.078,-0.113,1.011,-0.057,-0.580,1.038,1.556,100.000,18535.000,1.000
-8.416,-6.836,-8.788,-6.587,-9.567,-15.519,-7.152,1.280,-0.115,1.010,-0.059,-0.610,1.038,1.526,100.000,18536.000,1.000
-12.420,-8.060,-8.807,-7.164,-12.501,-20.214,-10.043,0.471,-0.116,1.009,-0.058,-0.580,0.977,1.587,100.000,18537.000,1.000
-12.577,-7.394,-6.881,-6.510,-11.746,-23.316,-8.209,1.167,-0.117,1.010,-0.057,-0.549,1.038,1.556,100.000,18538.000,1.000
-10.236,-5.408,-3.473,-4.589,-8.570,-23.845,-3.244,3.041,-0.119,1.010,-0.056,-0.580,1.068,1.617,100.000,18539.000,1.000
-6.963,-3.084,0.508,-1.998,-4.863,-21.489,2.420,5.341,-0.123,1.010,-0.055,-0.519,1.038,1.526,100.000,18540.000,1.000
-3.917,-1.020,4.506,0.660,-1.655,-16.629,7.104,7.432,-0.125,1.008,-0.056,-0.610,1.007,1.617,100.000,18541.000,1.000
-1.832,0.800,8.490,3.125,1.066,-10.494,10.247,8.932,-0.128,1.006,-0.058,-0.610,0.763,1.556,100.000,18542.000,1.000
-1.043,2.667,12.436,5.345,3.414,-4.902,11.813,9.572,-0.126,1.004,-0.056,-0.702,0.580,1.495,100.000,18543.000,1.000
-1.358,4.811,16.043,7.345,5.148,-1.351,12.058,9.405,-0.123,1.004,-0.055,-0.610,0.336,1.556,100.000,18544.000,1.000
-2.138,7.234,18.943,9.175,6.143,-0.172,11.802,9.063,-0.121,1.007,-0.056,-0.488,0.275,1.495,100.000,18545.000,1.000
-2.740,9.613,20.872,10.731,6.741,-0.568,12.156,9.364,-0.120,1.011,-0.056,-0.519,0.214,1.465,100.000,18546.000,1.000
-2.994,11.405,21.660,11.733,7.396,-1.289,13.593,10.533,-0.117,1.013,-0.057,-0.488,0.122,1.465,100.000,18547.000,1.000
-3.286,12.064,21.210,11.848,8.188,-1.309,15.478,11.853,-0.117,1.013,-0.055,-0.427,0.031,1.617,100.000,18548.000,1.000
-3.956,11.305,19.643,10.900,8.967,-0.037,16.809,12.238,-0.117,1.012,-0.056,-0.549,-0.031,1.740,100.000,18549.000,1.000
-4.666,9.392,17.431,9.120,9.743,2.737,17.227,11.271,-0.115,1.010,-0.053,-0.549,-0.061,1.770,100.000,18550.000,1.000
-4.917,6.984,15.093,7.108,10.266,6.566,16.713,9.378,-0.113,1.008,-0.057,-0.488,-0.183,1.892,100.000,18551.000,1.000
-5.101,4.577,12.713,5.417,9.387,10.011,14.514,7.003,-0.113,1.008,-0.059,-0.427,-0.061,1.831,100.000,18552.000,1.000
-6.445,2.277,9.971,4.221,5.649,11.094,9.310,4.177,-0.111,1.006,-0.054,-0.366,0.000,2.106,100.000,18553.000,1.000
-9.740,0.027,6.699,3.322,-1.187,8.524,0.749,0.941,-0.112,1.006,-0.055,-0.336,0.061,2.136,100.000,18554.000,1.000
-14.145,-2.149,3.262,2.351,-9.400,2.764,-9.464,-2.266,-0.113,1.004,-0.059,-0.244,0.153,2.289,100.000,18555.000,1.000
-17.269,-3.986,0.432,1.089,-16.100,-3.872,-18.104,-4.639,-0.114,1.003,-0.060,-0.214,0.061,2.350,100.000,18556.000,1.000
-16.765,-5.002,-1.058,-0.249,-18.797,-8.318,-22.137,-5.196,-0.115,1.004,-0.056,-0.092,0.031,2.350,100.000,18557.000,1.000
-12.173,-4.833,-0.964,-1.068,-16.615,-8.505,-20.442,-3.154,-0.117,1.006,-0.056,-0.031,-0.031,2.472,100.000,18558.000,1.000
-5.304,-3.567,0.290,-0.779,-10.656,-4.590,-14.517,1.376,-0.116,1.007,-0.055,0.031,-0.061,2.441,100.000,18559.000,1.000
1.159,-1.697,1.915,0.766,-3.389,1.335,-7.575,7.002,-0.117,1.009,-0.054,0.214,-0.092,2.472,100.000,18560.000,1.000
5.513,0.269,3.366,3.147,2.749,6.887,-2.474,11.754,-0.117,1.011,-0.055,0.183,-0.305,2.502,100.000,18561.000,1.000
7.715,2.145,4.665,5.644,6.547,10.941,-0.105,14.329,-0.118,1.014,-0.053,0.153,-0.458,2.533,100.000,18562.000,1.000
8.797,4.079,6.116,7.657,8.161,13.829,0.558,14.670,-0.121,1.016,-0.051,0.061,-0.519,2.563,100.000,18563.000,1.000
10.080,6.377,7.867,8.997,8.632,16.421,1.328,13.756,-0.120,1.016,-0.054,0.122,-0.488,2.594,100.000,18564.000,1.000
12.425,9.135,9.660,9.771,9.152,19.074,3.469,12.849,-0.118,1.017,-0.054,0.031,-0.641,2.563,100.000,18565.000,1.000
15.332,11.779,10.723,9.953,10.059,21.058,6.603,12.340,-0.115,1.016,-0.056,-0.061,-0.854,2.441,100.000,18566.000,1.000
16.913,13.272,10.179,9.313,10.514,21.059,8.804,11.364,-0.115,1.016,-0.055,-0.122,-0.885,2.472,100.000,18567.000,1.000
15.448,13.003,7.849,7.883,9.512,18.511,8.289,8.955,-0.112,1.015,-0.052,-0.183,-1.099,2.441,100.000,18568.000,1.000
10.883,11.067,4.385,6.100,6.955,14.211,4.931,5.212,-0.113,1.014,-0.054,-0.214,-1.068,2.319,100.000,18569.000,1.000
4.790,7.786,0.580,4.339,3.597,9.671,0.130,1.075,-0.110,1.012,-0.054,-0.244,-1.099,2.472,100.000,18570.000,1.000
-0.686,3.541,-3.054,2.652,0.412,6.235,-4.213,-2.479,-0.107,1.010,-0.055,-0.336,-1.099,2.411,100.000,18571.000,1.000
-4.027,-1.092,-6.276,0.883,-1.965,4.445,-6.736,-4.867,-0.107,1.008,-0.055,-0.244,-1.099,2.533,100.000,18572.000,1.000
-5.279,-5.573,-9.237,-1.339,-3.761,3.607,-7.522,-6.227,-0.108,1.009,-0.057,-0.183,-0.977,2.594,100.000,18573.000,1.000
-5.735,-9.511,-12.324,-4.399,-5.922,2.301,-7.982,-7.415,-0.107,1.008,-0.060,-0.183,-0.916,2.716,100.000,18574.000,1.000
-6.484,-12.318,-15.466,-8.033,-8.947,-0.196,-9.348,-9.170,-0.106,1.008,-0.057,-0.275,-0.854,2.808,100.000,18575.000,1.000
-7.677,-13.288,-17.917,-11.164,-12.180,-3.278,-11.555,-11.348,-0.104,1.007,-0.056,-0.214,-0.641,2.930,100.000,18576.000,1.000
-8.972,-12.238,-18.915,-12.693,-14.505,-5.727,-13.719,-13.174,-0.101,1.007,-0.053,-0.031,-0.519,2.960,100.000,18577.000,1.000
-9.980,-9.750,-18.286,-12.307,-15.320,-6.605,-15.035,-13.876,-0.103,1.007,-0.055,0.000,-0.549,2.899,100.000,18578.000,1.000
-10.456,-6.837,-16.504,-10.563,-14.774,-5.706,-15.084,-12.986,-0.103,1.006,-0.055,-0.061,-0.366,2.899,100.000,18579.000,1.000
-10.466,-4.546,-14.462,-8.472,-13.484,-3.638,-13.851,-10.567,-0.105,1.009,-0.056,-0.092,-0.336,3.052,100.000,18580.000,1.000
-10.188,-3.567,-13.002,-6.895,-12.054,-1.408,-11.681,-7.394,-0.106,1.009,-0.058,0.031,-0.275,2.991,100.000,18581.000,1.000
-9.369,-3.716,-12.237,-5.933,-10.510,0.384,-8.884,-4.382,-0.105,1.009,-0.057,-0.061,-0.183,2.899,100.000,18582.000,1.000
-7.328,-3.863,-11.345,-4.818,-8.265,1.914,-5.408,-1.781,-0.105,1.009,-0.056,-0.061,-0.183,2.960,100.000,18583.000,1.000
-3.910,-2.826,-9.371,-2.674,-5.035,3.514,-1.344,0.531,-0.104,1.009,-0.057,-0.122,-0.092,2.930,100.000,18584.000,1.000
0.039,-0.397,-6.146,0.584,-1.493,5.021,2.640,2.305,-0.105,1.011,-0.060,-0.061,-0.031,2.960,100.000,18585.000,1.000
3.471,2.596,-2.373,4.165,1.289,5.913,5.825,3.094,-0.102,1.010,-0.055,0.031,0.000,2.838,100.000,18586.000,1.000
5.709,4.867,0.729,6.930,2.475,5.555,7.749,2.649,-0.103,1.009,-0.054,-0.153,0.122,2.594,100.000,18587.000,1.000
6.106,5.291,1.915,7.960,1.477,3.249,7.731,0.805,-0.100,1.009,-0.053,-0.214,0.183,2.319,100.000,18588.000,1.000
4.005,3.424,0.603,6.966,-1.877,-1.337,4.890,-2.574,-0.099,1.008,-0.054,-0.244,0.366,2.228,100.000,18589.000,1.000
-0.500,-0.238,-2.669,4.319,-6.859,-7.519,-0.855,-7.203,-0.097,1.010,-0.057,-0.305,0.519,2.106,100.000,18590.000,1.000
-5.819,-4.475,-6.505,0.736,-11.707,-13.488,-7.860,-12.001,-0.095,1.011,-0.054,-0.336,0.671,1.984,100.000,18591.000,1.000
-9.267,-7.927,-9.424,-3.063,-14.362,-17.054,-13.158,-15.449,-0.099,1.010,-0.056,-0.336,0.824,1.953,100.000,18592.000,1.000
-8.671,-9.706,-10.600,-6.491,-13.682,-16.867,-14.180,-16.581,-0.099,1.009,-0.058,-0.427,0.977,1.862,100.000,18593.000,1.000
-3.842,-9.577,-10.021,-8.993,-10.103,-13.162,-10.448,-15.529,-0.098,1.009,-0.061,-0.336,1.221,1.740,100.000,18594.000,1.000
3.404,-7.772,-8.155,-10.021,-5.243,-7.530,-3.861,-13.177,-0.097,1.007,-0.058,-0.366,1.312,1.709,100.000,18595.000,1.000
10.477,-4.813,-5.578,-9.330,-0.869,-2.010,2.652,-10.558,-0.100,1.006,-0.060,-0.244,1.465,1.587,100.000,18596.000,1.000
15.338,-1.415,-2.758,-7.282,2.017,1.815,6.968,-8.437,-0.102,1.006,-0.059,-0.153,1.495,1.526,100.000,18597.000,1.000
17.214,1.672,-0.006,-4.686,3.366,3.265,8.638,-7.058,-0.103,1.006,-0.057,-0.183,1.617,1.343,100.000,18598.000,1.000
16.666,3.916,2.449,-2.282,3.663,2.485,8.416,-6.176,-0.105,1.006,-0.057,-0.122,1.648,1.251,100.000,18599.000,1.000
15.009,5.173,4.384,-0.369,3.509,0.128,7.364,-5.277,-0.104,1.006,-0.060,-0.122,1.617,1.068,100.000,18600.000,1.000
13.298,5.689,5.649,1.162,3.444,-2.889,6.305,-3.817,-0.106,1.007,-0.054,-0.092,1.740,1.038,100.000,18601.000,1.000
11.798,5.926,6.323,2.613,3.865,-5.516,5.705,-1.465,-0.106,1.008,-0.055,-0.061,1.617,0.885,100.000,18602.000,1.000
10.576,6.467,6.830,4.414,5.072,-6.595,5.859,1.812,-0.106,1.009,-0.058,-0.031,1.526,0.854,100.000,18603.000,1.000
10.015,7.738,7.713,6.853,7.181,-5.250,6.967,5.673,-0.107,1.010,-0.056,-0.092,1.526,0.793,100.000,18604.000,1.000
10.252,9.540,9.095,9.597,9.721,-1.733,8.786,9.145,-0.108,1.007,-0.060,-0.031,1.465,0.793,100.000,18605.000,1.000
10.643,11.048,10.503,11.729,11.605,2.393,10.424,10.754,-0.106,1.008,-0.059,0.031,1.526,0.671,100.000,18606.000,1.000
10.067,11.432,11.278,12.415,11.877,5.260,10.775,9.565,-0.106,1.005,-0.059,0.122,1.434,0.549,100.000,18607.000,1.000
7.377,10.451,11.126,11.497,10.566,5.873,9.366,6.279,-0.104,1.007,-0.061,-0.031,1.495,0.580,100.000,18608.000,1.000
2.029,8.512,10.163,9.465,8.444,4.378,6.531,2.579,-0.103,1.008,-0.060,0.000,1.556,0.549,100.000,18609.000,1.000
-4.896,6.262,8.482,6.935,5.907,1.514,2.684,-0.880,-0.101,1.008,-0.058,0.000,1.434,0.519,100.000,18610.000,1.000
-10.807,4.179,6.133,4.328,2.859,-1.802,-1.873,-4.624,-0.101,1.009,-0.057,0.000,1.556,0.641,100.000,18611.000,1.000
-13.550,2.440,3.534,2.035,-0.212,-4.555,-6.245,-8.441,-0.102,1.009,-0.061,-0.061,1.587,0.732,100.000,18612.000,1.000
-12.871,1.012,1.374,0.459,-2.098,-5.873,-8.931,-10.926,-0.104,1.009,-0.060,-0.031,1.678,0.824,100.000,18613.000,1.000
-9.730,-0.206,0.020,-0.304,-2.094,-5.441,-9.020,-11.301,-0.105,1.009,-0.059,-0.031,1.556,0.977,100.000,18614.000,1.000
-5.158,-1.311,-0.726,-0.595,-0.708,-3.676,-6.982,-10.332,-0.104,1.009,-0.061,-0.153,1.678,0.916,100.000,18615.000,1.000
-0.384,-2.454,-1.300,-0.896,0.980,-1.545,-4.151,-9.075,-0.107,1.008,-0.062,-0.275,1.678,0.977,100.000,18616.000,1.000
2.898,-3.794,-2.036,-1.527,2.095,-0.085,-1.805,-7.844,-0.109,1.006,-0.062,-0.275,1.740,0.977,100.000,18617.000,1.000
3.468,-5.292,-3.048,-2.586,2.114,0.151,-0.686,-6.721,-0.111,1.007,-0.058,-0.244,1.587,1.068,100.000,18618.000,1.000
1.720,-6.616,-4.138,-3.912,0.951,-0.622,-0.783,-5.998,-0.111,1.010,-0.056,-0.275,1.556,0.916,100.000,18619.000,1.000
-0.546,-7.270,-4.728,-4.987,-0.773,-1.552,-1.228,-5.578,-0.111,1.011,-0.058,-0.244,1.495,0.946,100.000,18620.000,1.000
-1.463,-6.887,-4.181,-5.147,-1.934,-1.604,-0.722,-4.688,-0.111,1.011,-0.057,-0.305,1.434,0.946,100.000,18621.000,1.000
-0.303,-5.474,-2.354,-4.053,-1.685,-0.085,1.539,-2.602,-0.108,1.013,-0.060,-0.366,1.434,0.885,100.000,18622.000,1.000
2.285,-3.448,0.173,-1.979,-0.033,3.051,5.304,0.643,-0.113,1.010,-0.057,-0.336,1.343,0.916,100.000,18623.000,1.000
4.718,-1.616,2.203,0.151,1.939,7.008,9.149,3.785,-0.112,1.010,-0.057,-0.488,1.282,0.946,100.000,18624.000,1.000
3.011,-1.265,1.936,0.909,1.687,9.926,10.300,3.448,-0.110,1.012,-0.057,-0.519,1.251,0.824,100.000,18625.000,1.000
-13.753,-4.117,-2.854,-1.091,-4.789,9.150,4.891,-6.067,-0.109,1.010,-0.058,-0.610,1.221,0.885,100.000,18626.000,1.000
-60.542,-11.202,-13.404,-6.079,-20.636,2.798,-9.929,-29.177,-0.108,1.011,-0.057,-0.671,1.099,0.793,100.000,18627.000,1.000
-136.583,-20.565,-27.145,-12.017,-43.216,-7.590,-31.939,-61.457,-0.106,1.010,-0.058,-0.854,1.099,0.793,100.000,18628.000,1.000
-211.371,-27.107,-37.334,-15.324,-62.370,-16.473,-52.301,-87.591,-0.105,1.012,-0.057,-0.793,1.038,0.793,100.000,18629.000,1.000
-246.768,-26.595,-38.044,-13.760,-67.613,-18.263,-61.211,-92.950,-0.107,1.011,-0.058,-0.824,1.038,0.824,100.000,18630.000,1.000
-232.725,-19.195,-29.242,-8.166,-57.262,-11.819,-55.687,-76.739,-0.108,1.011,-0.057,-0.885,1.038,0.702,100.000,18631.000,1.000
-188.771,-8.320,-15.674,-1.093,-38.140,-0.463,-40.426,-49.708,-0.108,1.012,-0.055,-0.854,1.068,0.793,100.000,18632.000,1.000
-136.317,2.320,-2.344,5.150,-18.122,11.093,-22.545,-22.245,-0.109,1.011,-0.056,-0.916,1.038,0.793,100.000,18633.000,1.000
-85.225,9.846,7.468,8.974,-1.919,18.983,-7.581,0.314,-0.109,1.011,-0.057,-0.977,1.038,0.854,100.000,18634.000,1.000
-42.740,12.370,11.789,9.440,7.941,20.979,1.084,14.583,-0.108,1.012,-0.056,-1.068,0.977,0.824,100.000,18635.000,1.000
-16.449,9.892,10.431,6.675,10.790,17.214,2.590,18.872,-0.109,1.012,-0.052,-1.251,1.068,0.854,100.000,18636.000,1.000
-4.379,4.865,5.899,2.166,9.302,10.513,-0.421,16.437,-0.107,1.013,-0.054,-1.160,1.160,1.007,100.000,18637.000,1.000
5.605,0.667,1.924,-2.042,8.142,4.742,-3.299,13.952,-0.108,1.012,-0.052,-1.160,1.038,0.977,100.000,18638.000,1.000
21.853,-0.885,0.499,-4.748,9.783,2.007,-3.187,15.273,-0.109,1.012,-0.056,-1.129,1.099,1.068,100.000,18639.000,1.000
41.730,-0.049,1.231,-5.904,13.335,1.977,-0.364,19.379,-0.108,1.014,-0.058,-1.221,1.038,1.129,100.000,18640.000,1.000
59.998,2.363,3.301,-5.669,17.486,3.661,4.078,24.419,-0.111,1.014,-0.054,-1.129,1.007,1.129,100.000,18641.000,1.000
76.478,5.807,6.544,-3.930,22.222,6.510,9.839,30.407,-0.108,1.013,-0.053,-1.129,0.977,1.221,100.000,18642.000,1.000
92.602,9.447,10.593,-0.840,27.517,9.825,16.500,37.455,-0.110,1.011,-0.053,-1.190,0.977,1.282,100.000,18643.000,1.000
106.555,12.024,14.329,2.746,32.275,12.371,22.778,44.124,-0.112,1.009,-0.053,-1.160,0.885,1.221,100.000,18644.000,1.000
115.532,12.739,16.664,5.595,35.154,13.128,27.342,48.554,-0.111,1.009,-0.054,-1.099,0.885,1.129,100.000,18645.000,1.000
119.843,11.917,17.410,6.783,35.741,12.112,29.903,50.145,-0.113,1.005,-0.053,-1.068,0.793,1.129,100.000,18646.000,1.000
122.361,10.647,17.224,6.161,34.712,10.258,31.298,49.748,-0.112,1.006,-0.055,-0.946,0.793,1.129,100.000,18647.000,1.000
125.290,9.926,16.884,4.356,33.161,8.638,32.612,48.659,-0.110,1.007,-0.053,-0.946,0.732,1.160,100.000,18648.000,1.000
128.461,10.015,16.651,2.279,31.793,7.746,34.177,47.392,-0.109,1.008,-0.056,-0.916,0.702,1.068,100.000,18649.000,1.000
130.071,10.334,16.139,0.495,30.569,7.305,35.366,45.324,-0.109,1.008,-0.051,-0.793,0.671,1.099,100.000,18650.000,1.000
128.915,9.954,14.845,-0.951,29.118,6.593,35.312,41.752,-0.108,1.007,-0.053,-0.763,0.732,0.977,100.000,18651.000,1.000
125.930,8.264,12.740,-2.240,27.425,5.072,33.855,37.079,-0.106,1.007,-0.051,-0.854,0.763,0.946,100.000,18652.000,1.000
122.711,5.338,10.256,-3.493,25.834,2.835,31.721,32.392,-0.103,1.007,-0.054,-0.885,0.854,1.038,100.000,18653.000,1.000
119.019,1.905,7.880,-4.690,24.484,0.496,29.785,28.236,-0.101,1.006,-0.053,-0.885,0.854,1.129,100.000,18654.000,1.000
113.768,-0.938,6.004,-5.674,23.278,-1.217,28.487,24.734,-0.101,1.006,-0.053,-0.916,0.946,1.221,100.000,18655.000,1.000
107.755,-2.411,4.831,-6.284,22.170,-1.963,27.769,22.361,-0.101,1.007,-0.054,-0.885,1.038,1.190,100.000,18656.000,1.000
102.364,-2.842,3.997,-6.571,20.760,-2.254,26.934,21.179,-0.100,1.007,-0.055,-0.824,1.160,1.343,100.000,18657.000,1.000
96.251,-3.451,2.647,-6.743,18.061,-3.250,24.793,19.861,-0.101,1.008,-0.055,-0.793,1.282,1.312,100.000,18658.000,1.000
87.099,-5.050,0.343,-6.827,13.625,-5.772,20.764,17.072,-0.101,1.009,-0.053,-0.824,1.160,1.404,100.000,18659.000,1.000
76.365,-7.216,-2.341,-6.641,8.651,-9.572,15.892,13.541,-0.102,1.008,-0.053,-0.824,1.312,1.526,100.000,18660.000,1.000
68.267,-8.892,-4.463,-6.193,5.101,-13.601,12.239,11.240,-0.102,1.009,-0.052,-0.885,1.373,1.617,100.000,18661.000,1.000
63.752,-9.364,-5.654,-5.779,3.830,-16.732,11.177,10.842,-0.103,1.011,-0.053,-0.885,1.373,1.709,100.000,18662.000,1.000
59.598,-8.376,-6.007,-5.432,4.371,-18.073,12.641,11.584,-0.105,1.012,-0.057,-0.854,1.373,1.831,100.000,18663.000,1.000
54.144,-5.777,-5.338,-4.567,6.308,-16.943,15.872,13.305,-0.105,1.013,-0.055,-0.824,1.282,1.953,100.000,18664.000,1.000
49.372,-1.822,-3.419,-2.614,9.587,-13.238,19.953,16.449,-0.107,1.012,-0.051,-0.763,1.221,1.923,100.000,18665.000,1.000
45.849,2.331,-0.925,0.202,13.167,-8.073,23.298,19.766,-0.110,1.011,-0.053,-0.671,1.190,1.831,100.000,18666.000,1.000
40.421,5.188,0.823,3.041,14.903,-3.473,23.831,20.322,-0.112,1.012,-0.053,-0.702,0.885,1.862,100.000,18667.000,1.000
31.533,6.160,1.264,5.171,13.626,-1.016,20.706,16.767,-0.113,1.011,-0.056,-0.763,0.763,1.678,100.000,18668.000,1.000
22.338,5.788,1.003,6.250,10.221,-1.036,15.109,10.689,-0.115,1.009,-0.057,-0.702,0.580,1.678,100.000,18669.000,1.000
15.433,4.871,1.113,6.230,5.961,-3.004,8.686,3.962,-0.114,1.010,-0.053,-0.641,0.549,1.495,100.000,18670.000,1.000
8.960,3.972,3.297,5.414,1.303,-5.805,2.368,-2.897,-0.114,1.010,-0.053,-0.519,0.397,1.373,100.000,18671.000,1.000
1.337,3.675,10.106,4.607,-2.879,-7.516,-2.687,-8.742,-0.113,1.012,-0.052,-0.427,0.061,1.282,100.000,18672.000,1.000
-4.730,4.351,22.569,4.646,-4.896,-6.210,-4.941,-11.085,-0.110,1.012,-0.055,-0.458,0.031,1.190,100.000,18673.000,1.000
-7.126,5.336,37.140,5.405,-4.509,-1.781,-4.530,-9.340,-0.110,1.010,-0.056,-0.427,-0.275,1.038,100.000,18674.000,1.000
-9.140,5.163,46.704,5.654,-4.011,3.750,-3.974,-6.591,-0.109,1.010,-0.052,-0.305,-0.397,0.854,100.000,18675.000,1.000
-14.816,3.184,45.764,4.205,-5.556,8.267,-5.522,-6.016,-0.107,1.011,-0.052,-0.244,-0.427,0.824,100.000,18676.000,1.000
-22.672,0.403,34.500,0.954,-8.658,11.255,-8.703,-7.350,-0.105,1.013,-0.052,-0.275,-0.488,0.641,100.000,18677.000,1.000
-28.816,-1.754,17.747,-3.316,-11.694,13.126,-11.590,-8.801,-0.105,1.014,-0.054,-0.244,-0.488,0.580,100.000,18678.000,1.000
-33.688,-2.973,0.907,-7.703,-14.507,13.963,-13.533,-10.485,-0.105,1.014,-0.054,-0.366,-0.549,0.488,100.000,18679.000,1.000
-40.429,-3.837,-12.645,-11.394,-17.825,13.709,-15.288,-13.541,-0.106,1.011,-0.054,-0.366,-0.580,0.427,100.000,18680.000,1.000
-48.343,-4.613,-21.457,-13.450,-21.163,12.872,-17.217,-17.327,-0.105,1.013,-0.051,-0.397,-0.610,0.366,100.000,18681.000,1.000
-53.524,-4.972,-25.369,-13.026,-23.113,12.289,-18.768,-19.850,-0.106,1.011,-0.054,-0.336,-0.732,0.366,100.000,18682.000,1.000
-55.130,-4.720,-25.496,-9.966,-23.238,12.343,-19.504,-20.336,-0.106,1.011,-0.052,-0.397,-0.763,0.244,100.000,18683.000,1.000
-55.788,-4.055,-23.744,-4.892,-22.169,12.784,-19.473,-19.416,-0.107,1.010,-0.053,-0.427,-0.793,0.305,100.000,18684.000,1.000
-56.040,-3.044,-21.532,1.283,-20.061,13.357,-18.414,-17.226,-0.108,1.009,-0.054,-0.336,-0.854,0.153,100.000,18685.000,1.000
-53.875,-1.633,-19.421,7.443,-16.651,13.968,-15.863,-13.553,-0.109,1.010,-0.053,-0.397,-0.854,0.031,100.000,18686.000,1.000
-50.265,-0.401,-18.105,12.024,-13.054,13.910,-12.636,-9.931,-0.111,1.008,-0.053,-0.427,-1.038,0.092,100.000,18687.000,1.000
-49.589,-0.382,-18.640,13.574,-11.570,12.021,-10.833,-9.114,-0.110,1.006,-0.053,-0.305,-1.160,0.031,100.000,18688.000,1.000
-53.140,-1.873,-21.186,11.923,-13.032,8.261,-11.472,-11.699,-0.109,1.006,-0.052,-0.275,-1.221,-0.031,100.000,18689.000,1.000
-57.097,-4.174,-24.512,8.305,-15.930,4.075,-13.341,-15.311,-0.108,1.004,-0.055,-0.244,-1.160,-0.061,100.000,18690.000,1.000
-58.505,-6.646,-27.286,4.194,-18.681,0.661,-14.852,-17.777,-0.108,1.003,-0.055,-0.275,-1.129,-0.122,100.000,18691.000,1.000
-59.033,-9.266,-29.216,0.472,-21.406,-2.300,-16.018,-19.291,-0.106,1.003,-0.057,-0.183,-1.099,-0.214,100.000,18692.000,1.000
-61.095,-11.990,-30.537,-2.356,-24.833,-5.797,-17.894,-20.821,-0.105,1.004,-0.058,-0.092,-1.038,-0.305,100.000,18693.000,1.000
-63.914,-14.191,-31.009,-3.820,-28.486,-9.988,-20.765,-22.207,-0.104,1.004,-0.055,0.000,-0.977,-0.275,100.000,18694.000,1.000
-65.619,-15.001,-30.052,-3.701,-30.845,-13.998,-23.614,-22.759,-0.105,1.002,-0.057,0.183,-0.854,-0.275,100.000,18695.000,1.000
-66.184,-13.946,-27.521,-2.293,-30.727,-16.787,-25.009,-22.360,-0.106,1.006,-0.054,0.244,-0.916,-0.183,100.000,18696.000,1.000
-66.026,-11.293,-23.950,-0.262,-27.957,-17.939,-24.123,-21.109,-0.107,1.006,-0.056,0.275,-0.641,-0.214,100.000,18697.000,1.000
-64.192,-8.082,-20.242,1.632,-23.349,-17.935,-21.253,-18.940,-0.108,1.007,-0.056,0.397,-0.641,-0.153,100.000,18698.000,1.000
-60.226,-5.621,-17.330,2.768,-18.466,-17.800,-17.663,-16.328,-0.110,1.009,-0.055,0.427,-0.549,-0.153,100.000,18699.000,1.000
-56.096,-4.681,-15.889,2.868,-14.961,-18.425,-14.777,-14.519,-0.110,1.009,-0.055,0.488,-0.427,0.031,100.000,18700.000,1.000
-54.138,-5.130,-15.977,2.111,-13.547,-20.064,-13.267,-14.268,-0.112,1.010,-0.057,0.458,-0.458,0.061,100.000,18701.000,1.000
-54.014,-6.120,-16.741,1.078,-13.435,-22.188,-12.697,-14.820,-0.112,1.011,-0.058,0.427,-0.458,0.214,100.000,18702.000,1.000
-53.537,-6.586,-16.723,0.474,-12.980,-23.750,-12.043,-14.848,-0.110,1.013,-0.055,0.336,-0.397,0.214,100.000,18703.000,1.000
-51.680,-5.758,-14.707,0.840,-10.958,-23.778,-10.543,-13.893,-0.111,1.013,-0.054,0.305,-0.458,0.244,100.000,18704.000,1.000
-49.045,-3.428,-10.392,2.425,-7.168,-21.850,-8.027,-12.173,-0.111,1.014,-0.056,0.305,-0.336,0.336,100.000,18705.000,1.000
-46.175,-0.032,-4.587,4.943,-2.278,-18.302,-4.848,-9.726,-0.109,1.014,-0.053,0.092,-0.366,0.427,100.000,18706.000,1.000
-43.369,3.373,0.991,7.369,2.308,-14.209,-1.912,-6.847,-0.109,1.014,-0.053,0.000,-0.458,0.458,100.000,18707.000,1.000
-41.795,5.463,4.446,8.389,4.749,-10.991,-0.546,-4.828,-0.110,1.015,-0.055,-0.183,-0.458,0.641,100.000,18708.000,1.000
-42.655,5.407,4.817,7.343,3.884,-9.457,-1.543,-4.965,-0.109,1.014,-0.058,-0.214,-0.275,0.671,100.000,18709.000,1.000
-45.028,3.495,2.753,4.680,0.356,-9.065,-4.163,-6.994,-0.108,1.013,-0.056,-0.366,-0.122,0.793,100.000,18710.000,1.000
-46.459,0.859,-0.030,1.499,-3.839,-8.625,-6.673,-9.438,-0.108,1.013,-0.055,-0.397,-0.031,0.824,100.000,18711.000,1.000
-45.914,-1.424,-1.976,-1.200,-6.863,-7.665,-7.923,-11.263,-0.109,1.013,-0.053,-0.488,0.000,0.854,100.000,18712.000,1.000
-44.328,-2.717,-2.318,-2.798,-7.710,-6.560,-7.857,-12.417,-0.110,1.010,-0.055,-0.580,-0.031,0.946,100.000,18713.000,1.000
-42.362,-2.720,-0.943,-2.981,-6.017,-5.676,-6.867,-13.076,-0.109,1.012,-0.057,-0.549,0.031,0.854,100.000,18714.000,1.000
-39.459,-1.494,1.811,-1.725,-2.072,-5.045,-5.329,-13.111,-0.109,1.011,-0.060,-0.793,0.092,0.946,100.000,18715.000,1.000
-35.238,0.508,5.305,0.673,3.069,-4.560,-3.593,-12.305,-0.112,1.009,-0.058,-0.671,0.031,0.977,100.000,18716.000,1.000
-30.573,2.513,8.674,3.458,7.693,-4.294,-2.177,-10.897,-0.111,1.007,-0.055,-0.610,0.000,0.916,100.000,18717.000,1.000
-26.866,3.575,10.960,5.461,9.926,-4.709,-1.907,-9.682,-0.112,1.005,-0.053,-0.610,0.183,0.916,100.000,18718.000,1.000
-24.722,3.027,11.520,5.695,8.786,-6.283,-3.407,-9.310,-0.114,1.006,-0.052,-0.549,0.122,0.885,100.000,18719.000,1.000
-23.647,0.966,10.452,4.002,5.019,-8.788,-6.305,-9.630,-0.111,1.004,-0.054,-0.488,0.122,0.916,100.000,18720.000,1.000
-22.567,-1.663,8.625,1.121,0.752,-11.107,-9.152,-9.779,-0.110,1.007,-0.055,-0.458,0.183,0.854,100.000,18721.000,1.000
-20.329,-3.466,7.345,-1.665,-1.717,-11.827,-10.236,-8.684,-0.110,1.010,-0.058,-0.427,0.183,0.885,100.000,18722.000,1.000
-16.363,-3.354,7.702,-3.146,-1.169,-10.068,-8.712,-5.718,-0.108,1.011,-0.059,-0.397,0.244,0.824,100.000,18723.000,1.000
-11.193,-1.204,9.948,-2.827,2.030,-5.904,-5.100,-1.263,-0.108,1.013,-0.058,-0.549,0.244,0.885,100.000,18724.000,1.000
-5.965,2.246,13.521,-1.075,6.503,-0.103,-0.691,3.474,-0.109,1.014,-0.054,-0.519,0.366,0.977,100.000,18725.000,1.000
-1.556,5.975,17.574,1.293,10.754,6.296,3.298,7.268,-0.107,1.012,-0.056,-0.458,0.336,1.007,100.000,18726.000,1.000
1.689,9.053,21.216,3.371,13.532,12.007,5.953,9.315,-0.107,1.010,-0.053,-0.519,0.519,1.038,100.000,18727.000,1.000
3.853,10.888,23.646,4.479,14.099,15.686,6.812,9.353,-0.107,1.010,-0.056,-0.610,0.549,1.038,100.000,18728.000,1.000
5.469,11.559,24.555,4.601,12.802,16.719,6.348,7.952,-0.107,1.011,-0.054,-0.580,0.519,1.099,100.000,18729.000,1.000
7.345,11.728,24.341,4.415,11.062,15.677,5.880,6.413,-0.106,1.011,-0.054,-0.610,0.610,1.160,100.000,18730.000,1.000
10.068,11.999,23.692,4.646,10.347,13.804,6.532,5.826,-0.108,1.009,-0.057,-0.641,0.580,1.129,100.000,18731.000,1.000
13.528,12.356,23.021,5.444,11.172,12.103,8.319,6.233,-0.108,1.006,-0.055,-0.671,0.671,1.221,100.000,18732.000,1.000
16.761,12.228,22.319,6.354,12.944,10.830,10.144,6.719,-0.108,1.004,-0.053,-0.702,0.641,1.251,100.000,18733.000,1.000
18.400,11.078,21.388,6.758,14.417,9.634,10.503,6.258,-0.109,1.004,-0.056,-0.702,0.671,1.343,100.000,18734.000,1.000
17.785,8.959,20.104,6.306,14.396,8.137,8.439,4.563,-0.107,1.002,-0.055,-0.671,0.671,1.404,100.000,18735.000,1.000
15.656,6.524,18.556,5.078,12.476,6.392,4.254,2.339,-0.109,1.003,-0.058,-0.671,0.641,1.373,100.000,18736.000,1.000
13.571,4.590,17.081,3.514,9.370,4.943,-0.524,0.846,-0.110,1.006,-0.054,-0.549,0.641,1.434,100.000,18737.000,1.000
12.936,3.720,16.181,2.230,6.564,4.502,-3.874,1.117,-0.111,1.007,-0.053,-0.427,0.580,1.465,100.000,18738.000,1.000
14.476,4.045,16.238,1.723,5.370,5.401,-4.402,3.372,-0.111,1.010,-0.052,-0.366,0.580,1.495,100.000,18739.000,1.000
17.935,5.170,17.084,2.032,6.060,7.164,-2.183,6.925,-0.112,1.011,-0.052,-0.336,0.549,1.495,100.000,18740.000,1.000
22.193,6.364,17.893,2.648,7.874,8.757,1.404,10.592,-0.113,1.012,-0.054,-0.366,0.610,1.434,100.000,18741.000,1.000
25.930,7.074,17.657,2.843,9.707,9.401,4.657,13.231,-0.113,1.011,-0.054,-0.519,0.458,1.343,100.000,18742.000,1.000
28.207,7.232,15.802,2.148,10.676,9.074,6.383,14.075,-0.115,1.012,-0.057,-0.519,0.336,1.373,100.000,18743.000,1.000
28.536,6.976,12.438,0.552,10.251,8.231,6.110,12.949,-0.114,1.013,-0.058,-0.610,0.305,1.404,100.000,18744.000,1.000
26.510,6.175,8.156,-1.641,8.236,7.204,4.015,10.431,-0.111,1.013,-0.053,-0.641,0.092,1.373,100.000,18745.000,1.000
21.728,4.397,3.706,-4.021,4.852,5.952,0.851,7.615,-0.113,1.013,-0.054,-0.732,-0.061,1.495,100.000,18746.000,1.000
15.042,1.516,-0.155,-6.115,0.749,4.385,-2.247,5.334,-0.114,1.013,-0.051,-0.824,-0.183,1.587,100.000,18747.000,1.000
9.719,-1.686,-2.609,-7.320,-3.041,2.855,-4.117,3.765,-0.115,1.013,-0.054,-0.916,-0.214,1.587,100.000,18748.000,1.000
9.724,-3.633,-2.547,-6.847,-4.997,2.362,-3.641,3.205,-0.118,1.016,-0.051,-1.007,-0.336,1.587,100.000,18749.000,1.000
16.399,-2.762,1.387,-4.022,-3.466,4.169,0.172,4.572,-0.120,1.017,-0.052,-1.068,-0.519,1.556,100.000,18750.000,1.000
27.591,1.449,9.873,1.012,2.004,8.903,7.409,8.286,-0.120,1.017,-0.051,-1.160,-0.732,1.648,100.000,18751.000,1.000
39.584,7.924,21.581,6.913,9.603,15.790,16.307,13.074,-0.121,1.020,-0.048,-1.373,-1.099,1.617,100.000,18752.000,1.000
48.746,14.269,32.894,11.598,15.784,22.617,23.325,16.571,-0.120,1.020,-0.049,-1.434,-1.343,1.648,100.000,18753.000,1.000
52.016,17.729,39.252,13.173,17.079,26.506,24.611,16.883,-0.121,1.020,-0.047,-1.587,-1.526,1.770,100.000,18754.000,1.000
