EEG 1,EEG 2,EEG 3,EEG 4,EEG 5,EEG 6,EEG 7,EEG 8,Accelerometer X,Accelerometer Y,Accelerometer Z,Gyroscope X,Gyroscope Y,Gyroscope Z,Battery Level,Counter,Validation Indicator
142030.141,135882.703,225383.297,225381.141,133609.969,160084.453,132961.141,147938.063,-0.022,1.016,-0.010,-0.488,0.732,1.190,93.333,22297.000,1.000
142813.266,136227.094,225973.016,225505.953,134258.797,160599.609,133149.531,148556.672,-0.020,1.017,-0.007,-0.427,0.732,1.160,93.333,22298.000,1.000
142314.453,135900.578,225676.641,225388.203,133936.219,160242.172,132970.531,148135.125,-0.020,1.017,-0.012,-0.427,0.793,1.007,93.333,22299.000,1.000
141599.016,135591.594,225145.906,225280.203,133358.656,159775.547,132806.656,147592.422,-0.021,1.018,-0.005,-0.366,0.671,1.007,93.333,22300.000,1.000
141894.953,135809.203,225290.484,225352.359,133504.469,159988.344,132914.750,147821.844,-0.021,1.018,-0.009,-0.275,0.641,1.007,93.333,22301.000,1.000
142755.953,136219.578,225923.313,225508.547,134195.594,160566.172,133144.344,148511.797,-0.022,1.016,-0.011,-0.305,0.732,1.038,93.333,22302.000,1.000
142492.922,135996.953,225795.016,225429.063,134056.922,160365.734,133024.266,148267.078,-0.021,1.016,-0.009,-0.214,0.671,0.977,93.333,22303.000,1.000
141655.625,135607.859,225191.422,225292.359,133408.984,159812.203,132816.750,147630.500,-0.023,1.016,-0.010,-0.336,0.641,0.885,93.333,22304.000,1.000
141791.250,135753.688,225212.516,225335.375,133422.219,159915.656,132885.234,147727.422,-0.023,1.017,-0.010,-0.305,0.641,0.854,93.333,22305.000,1.000
142645.172,136178.188,225826.922,225492.641,134094.203,160499.750,133121.000,148419.969,-0.024,1.016,-0.008,-0.305,0.549,0.671,93.333,22306.000,1.000
142641.688,136081.266,225880.297,225456.781,134150.531,160466.844,133067.625,148377.859,-0.025,1.016,-0.008,-0.244,0.519,0.580,93.333,22307.000,1.000
141737.969,135630.578,225253.828,225296.031,133476.844,159865.766,132828.906,147693.266,-0.026,1.018,-0.007,-0.214,0.488,0.488,93.333,22308.000,1.000
141698.984,135688.422,225150.922,225307.391,133356.422,159848.594,132849.656,147657.234,-0.026,1.018,-0.009,-0.153,0.397,0.458,93.333,22309.000,1.000
142495.500,136109.438,225713.641,225462.859,133968.859,160402.656,133085.688,148312.422,-0.028,1.018,-0.007,-0.153,0.214,0.427,93.333,22310.000,1.000
142741.563,136145.906,225949.422,225478.156,134221.969,160542.844,133109.391,148479.969,-0.028,1.017,-0.010,-0.122,0.214,0.519,93.333,22311.000,1.000
141851.594,135683.766,225351.016,225312.656,133575.109,159945.875,132860.563,147792.953,-0.030,1.018,-0.011,-0.153,0.244,0.336,93.333,22312.000,1.000
141636.578,135651.766,225128.844,225294.328,133325.563,159805.688,132830.516,147615.125,-0.030,1.018,-0.010,-0.122,0.092,0.336,93.333,22313.000,1.000
142336.359,136036.828,225601.172,225432.016,133840.281,160288.922,133037.047,148182.500,-0.028,1.018,-0.011,-0.153,-0.061,0.244,93.333,22314.000,1.000
142801.453,136184.094,225978.828,225482.266,134258.266,160573.422,133115.906,148528.594,-0.030,1.019,-0.012,-0.092,-0.183,0.183,93.333,22315.000,1.000
141981.859,135734.016,225437.734,225321.781,133675.859,160014.266,132876.125,147881.734,-0.031,1.021,-0.014,-0.061,-0.214,0.153,93.333,22316.000,1.000
141584.813,135606.078,225094.500,225272.875,133299.188,159757.578,132804.328,147569.359,-0.030,1.020,-0.014,-0.061,-0.153,0.214,93.333,22317.000,1.000
142163.453,135947.250,225466.609,225389.375,133700.547,160164.734,132989.125,148036.594,-0.028,1.020,-0.015,0.031,-0.305,0.244,93.333,22318.000,1.000
142834.719,136224.500,225989.641,225501.031,134273.906,160602.391,133152.750,148559.000,-0.028,1.019,-0.015,0.153,-0.366,0.244,93.333,22319.000,1.000
142162.828,135829.406,225568.094,225366.031,133815.969,160138.359,132942.016,148015.500,-0.028,1.019,-0.017,0.214,-0.427,0.305,93.333,22320.000,1.000
141586.328,135596.328,225113.375,225275.375,133320.828,159759.016,132806.563,147568.813,-0.026,1.020,-0.014,0.183,-0.366,0.488,93.333,22321.000,1.000
142030.688,135882.156,225376.500,225373.359,133598.625,160073.359,132955.156,147922.688,-0.026,1.016,-0.016,0.214,-0.458,0.580,93.333,22322.000,1.000
142824.797,136239.438,225978.563,225508.281,134256.297,160598.719,133152.391,148554.969,-0.024,1.015,-0.017,0.244,-0.458,0.702,93.333,22323.000,1.000
142331.359,135911.484,225684.141,225384.813,133937.297,160243.953,132971.156,148136.188,-0.024,1.018,-0.017,0.153,-0.336,0.763,93.333,22324.000,1.000
141593.750,135588.547,225138.938,225266.344,133348.906,159762.594,132797.797,147578.828,-0.023,1.018,-0.017,0.214,-0.275,0.854,93.333,22325.000,1.000
141876.453,135800.531,225272.969,225330.719,133485.344,159966.891,132897.672,147794.563,-0.022,1.017,-0.019,0.397,-0.122,0.946,93.333,22326.000,1.000
142731.984,136209.844,225904.531,225486.469,134175.375,160542.656,133129.141,148483.359,-0.020,1.019,-0.022,0.397,0.000,1.007,93.333,22327.000,1.000
142482.359,135998.031,225787.313,225410.563,134046.016,160346.688,133016.844,148253.406,-0.019,1.018,-0.019,0.427,0.153,1.129,93.333,22328.000,1.000
141653.734,135617.703,225198.656,225282.172,133408.719,159805.594,132822.297,147629.344,-0.019,1.018,-0.016,0.397,0.153,1.190,93.333,22329.000,1.000
141784.188,135759.047,225217.891,225329.375,133416.766,159907.422,132890.516,147722.234,-0.017,1.017,-0.015,0.519,0.305,1.373,93.333,22330.000,1.000
142626.750,136176.125,225825.406,225482.078,134082.125,160482.578,133119.938,148408.703,-0.017,1.017,-0.015,0.427,0.366,1.404,93.333,22331.000,1.000
142558.625,136051.406,225858.047,225443.016,134132.375,160422.141,133059.766,148366.141,-0.019,1.018,-0.016,0.427,0.580,1.465,93.333,22332.000,1.000
141720.438,135639.328,225252.578,225295.219,133472.641,159850.203,132832.484,147688.984,-0.018,1.018,-0.018,0.427,0.702,1.526,93.333,22333.000,1.000
141702.109,135701.109,225160.672,225312.391,133355.078,159840.734,132850.547,147652.594,-0.018,1.020,-0.019,0.275,0.732,1.465,93.333,22334.000,1.000
142501.500,136119.813,225723.219,225467.516,133967.781,160391.031,133077.906,148303.563,-0.018,1.019,-0.021,0.275,0.885,1.312,93.333,22335.000,1.000
142694.078,136125.703,225937.516,225473.328,134212.484,160504.391,133088.906,148464.500,-0.020,1.021,-0.021,0.183,0.824,1.312,93.333,22336.000,1.000
141829.516,135673.672,225338.766,225306.406,133563.297,159914.313,132836.609,147768.813,-0.021,1.024,-0.021,0.092,0.916,1.282,93.333,22337.000,1.000
141649.719,135651.219,225126.609,225290.938,133313.672,159790.656,132807.719,147585.719,-0.021,1.026,-0.019,0.000,1.007,1.282,93.333,22338.000,1.000
142343.688,136035.578,225606.719,225430.313,133831.609,160281.688,133021.406,148159.969,-0.020,1.026,-0.016,-0.031,1.007,1.190,93.333,22339.000,1.000
142774.906,136173.453,225987.234,225483.422,134258.359,160561.344,133105.359,148519.484,-0.019,1.025,-0.014,-0.153,1.068,1.160,93.333,22340.000,1.000
141951.109,135727.313,225447.219,225323.297,133680.063,160003.984,132866.203,147874.406,-0.021,1.025,-0.016,-0.183,1.007,1.068,93.333,22341.000,1.000
141608.859,135621.359,225122.125,225273.313,133308.766,159768.406,132792.609,147561.844,-0.022,1.025,-0.015,-0.427,0.977,0.885,93.333,22342.000,1.000
142176.141,135957.438,225489.500,225391.516,133703.219,160169.391,132974.734,148029.438,-0.023,1.020,-0.014,-0.519,0.946,0.824,93.333,22343.000,1.000
142824.172,136222.891,226007.266,225498.359,134274.172,160597.203,133132.984,148556.672,-0.024,1.019,-0.017,-0.580,0.977,0.610,93.333,22344.000,1.000
142112.750,135810.016,225559.688,225352.000,133797.375,160107.609,132911.531,147997.438,-0.025,1.015,-0.018,-0.610,0.916,0.580,93.333,22345.000,1.000
141604.828,135606.875,225123.469,225271.703,133309.391,159756.234,132788.859,147554.875,-0.025,1.012,-0.018,-0.641,0.763,0.488,93.333,22346.000,1.000
142031.391,135881.625,225380.078,225368.813,133582.344,160066.297,132939.234,147906.500,-0.028,1.014,-0.018,-0.580,0.671,0.305,93.333,22347.000,1.000
142834.188,136244.078,225986.781,225503.453,134250.313,160605.609,133141.563,148547.734,-0.029,1.017,-0.016,-0.580,0.549,0.214,93.333,22348.000,1.000
142346.734,135917.203,225699.703,225381.500,133942.563,160254.953,132959.719,148137.359,-0.028,1.019,-0.015,-0.549,0.458,0.153,93.333,22349.000,1.000
141613.859,135596.500,225153.516,225265.719,133351.672,159765.984,132786.719,147577.844,-0.028,1.021,-0.010,-0.702,0.305,0.092,93.333,22350.000,1.000
141895.406,135812.156,225288.609,225336.891,133488.734,159970.641,132894.359,147796.000,-0.028,1.018,-0.011,-0.671,0.122,0.031,93.333,22351.000,1.000
142743.969,136217.078,225914.359,225486.641,134176.984,160545.969,133120.203,148478.266,-0.027,1.016,-0.017,-0.702,0.031,-0.031,93.333,22352.000,1.000
142508.734,136004.734,225802.078,225406.719,134053.516,160351.688,133004.594,148250.359,-0.028,1.013,-0.015,-0.763,-0.122,-0.031,93.333,22353.000,1.000
141666.969,135610.000,225203.766,225268.219,133406.922,159795.125,132797.984,147615.125,-0.026,1.012,-0.017,-0.641,-0.122,-0.092,93.333,22354.000,1.000
141775.063,135741.438,225207.344,225303.625,133399.328,159883.734,132857.703,147692.828,-0.028,1.015,-0.019,-0.641,-0.153,0.061,93.333,22355.000,1.000
142607.797,136166.469,225808.063,225460.625,134056.734,160464.344,133094.000,148376.703,-0.025,1.018,-0.017,-0.488,-0.275,0.000,93.333,22356.000,1.000
142643.922,136092.891,225892.281,225441.313,134146.500,160458.891,133050.641,148370.969,-0.022,1.022,-0.015,-0.427,-0.366,0.061,93.333,22357.000,1.000
141758.531,135651.766,225288.875,225293.344,133499.281,159870.063,132821.672,147702.656,-0.022,1.025,-0.017,-0.366,-0.336,0.214,93.333,22358.000,1.000
141686.734,135689.125,225160.125,225293.797,133356.234,159828.922,132828.563,147633.094,-0.021,1.025,-0.020,-0.458,-0.336,0.214,93.333,22359.000,1.000
142457.328,136093.438,225694.875,225436.391,133942.563,160362.688,133050.547,148261.719,-0.020,1.025,-0.019,-0.519,-0.305,0.427,93.333,22360.000,1.000
142723.766,136130.891,225936.625,225450.797,134208.734,160507.344,133065.578,148445.906,-0.020,1.024,-0.021,-0.580,-0.305,0.519,93.333,22361.000,1.000
141847.125,135665.000,225345.469,225286.016,133568.484,159908.047,132813.453,147765.688,-0.019,1.024,-0.016,-0.580,-0.092,0.702,93.333,22362.000,1.000
141613.328,135627.625,225110.594,225266.078,133304.734,159764.828,132786.266,147576.141,-0.018,1.024,-0.014,-0.641,-0.122,0.763,93.333,22363.000,1.000
142300.063,136020.203,225576.406,225405.547,133810.516,160254.953,133003.078,148138.078,-0.021,1.021,-0.015,-0.702,0.000,0.854,93.333,22364.000,1.000
142797.875,136191.953,225983.391,225473.594,134256.203,160570.734,133104.734,148515.188,-0.023,1.021,-0.016,-0.671,0.122,0.824,93.333,22365.000,1.000
142011.188,135754.313,225473.234,225325.438,133699.922,160031.703,132876.563,147893.359,-0.026,1.022,-0.016,-0.732,0.122,0.732,93.333,22366.000,1.000
141589.906,135612.953,225119.359,225268.844,133309.750,159760.078,132789.750,147563.906,-0.027,1.023,-0.014,-0.702,0.031,0.702,93.333,22367.000,1.000
142135.828,135936.516,225469.828,225378.016,133690.078,160151.859,132958.734,148012.547,-0.028,1.023,-0.019,-0.885,0.153,0.610,93.333,22368.000,1.000
142806.016,136209.844,225984.906,225479.484,134257.453,160587.094,133113.234,148538.172,-0.027,1.024,-0.012,-0.916,0.122,0.549,93.333,22369.000,1.000
142162.375,135817.078,225580.078,225341.625,133815.875,160128.172,132898.656,148011.563,-0.026,1.021,-0.014,-1.038,0.031,0.580,93.333,22370.000,1.000
141579.531,135581.125,225126.781,225255.891,133322.438,159745.063,132769.906,147561.844,-0.024,1.021,-0.012,-1.038,-0.031,0.427,93.333,22371.000,1.000
141985.266,135851.500,225359.500,225342.156,133570.281,160040.828,132912.516,147888.266,-0.023,1.021,-0.011,-1.129,-0.061,0.519,93.333,22372.000,1.000
142773.031,136205.906,225950.578,225473.328,134216.953,160564.031,133108.313,148517.250,-0.022,1.021,-0.011,-1.068,0.000,0.580,93.333,22373.000,1.000
142332.703,135902.453,225698.453,225366.297,133936.219,160238.406,132941.750,148139.594,-0.018,1.020,-0.009,-1.221,0.244,0.580,93.333,22374.000,1.000
141605.906,135583.000,225160.938,225250.703,133352.391,159758.750,132772.141,147583.484,-0.019,1.022,-0.013,-1.221,0.366,0.671,93.333,22375.000,1.000
141854.813,135776.844,225263.844,225307.031,133460.578,159940.594,132866.906,147774.625,-0.021,1.021,-0.015,-1.251,0.458,0.793,93.333,22376.000,1.000
142695.594,136180.609,225876.094,225456.781,134137.297,160506.984,133088.906,148455.734,-0.021,1.018,-0.013,-1.190,0.610,0.671,93.333,22377.000,1.000
142493.813,135989.266,225790.359,225395.531,134041.266,160335.859,132988.141,148259.844,-0.020,1.016,-0.010,-1.221,0.702,0.610,93.333,22378.000,1.000
141657.859,135596.688,225197.766,225263.844,133405.141,159780.469,132785.734,147631.484,-0.020,1.016,-0.009,-1.160,0.824,0.702,93.333,22379.000,1.000
141746.094,135715.063,225180.609,225291.109,133381.453,159850.656,132833.391,147693.188,-0.019,1.017,-0.009,-1.160,0.824,0.702,93.333,22380.000,1.000
142584.375,136142.609,225778.828,225448.734,134039.219,160428.141,133070.766,148377.859,-0.019,1.016,-0.009,-1.129,0.946,0.793,93.333,22381.000,1.000
142642.047,136079.484,225879.313,225430.766,134144.625,160434.031,133033.656,148386.438,-0.021,1.016,-0.008,-1.129,0.916,0.793,93.333,22382.000,1.000
141756.375,135637.906,225275.547,225280.469,133492.406,159846.359,132802.531,147715.625,-0.024,1.017,-0.010,-1.160,1.007,0.885,93.333,22383.000,1.000
141676.000,135671.781,225143.141,225282.438,133340.047,159805.234,132810.766,147642.313,-0.022,1.017,-0.007,-1.007,1.099,0.854,93.333,22384.000,1.000
142442.484,136078.766,225670.281,225425.672,133914.578,160336.047,133036.688,148263.781,-0.024,1.015,-0.007,-0.946,1.007,0.946,93.333,22385.000,1.000
142737.703,136140.094,225934.750,225451.859,134199.703,160504.844,133068.531,148465.750,-0.023,1.014,-0.006,-0.854,0.946,0.977,93.333,22386.000,1.000
141861.797,135673.578,225347.609,225287.531,133561.875,159910.922,132816.219,147786.875,-0.025,1.015,-0.010,-0.854,0.885,0.854,93.333,22387.000,1.000
141605.813,135619.313,225095.313,225259.375,133280.688,159751.141,132781.703,147580.625,-0.023,1.015,-0.009,-0.793,0.854,0.854,93.333,22388.000,1.000
142279.234,136004.656,225551.281,225399.297,133776.625,160232.688,132999.500,148136.109,-0.025,1.015,-0.007,-0.763,0.885,0.824,93.333,22389.000,1.000
142794.391,136188.656,225967.922,225472.703,134228.484,160555.813,133100.797,148522.344,-0.024,1.014,-0.006,-0.549,0.854,0.824,93.333,22390.000,1.000
142006.188,135742.422,225456.422,225314.359,133669.969,160008.813,132857.344,147894.703,-0.025,1.015,-0.010,-0.549,0.732,0.824,93.333,22391.000,1.000
141575.422,135595.172,225098.344,225254.453,133274.609,159730.766,132771.875,147559.156,-0.024,1.013,-0.008,-0.519,0.610,0.824,93.333,22392.000,1.000
142122.141,135926.953,225450.172,225371.125,133651.641,160125.844,132949.609,148005.484,-0.022,1.013,-0.010,-0.488,0.610,0.885,93.333,22393.000,1.000
142806.734,136212.781,225981.781,225481.375,134232.516,160574.578,133110.547,148541.203,-0.024,1.014,-0.009,-0.458,0.641,0.824,93.333,22394.000,1.000
142182.219,135834.953,225598.938,225355.578,133810.422,160133.453,132912.781,148031.500,-0.023,1.017,-0.009,-0.519,0.580,0.977,93.333,22395.000,1.000
141586.063,135591.328,225134.828,225265.359,133303.672,159736.484,132776.438,147574.359,-0.023,1.015,-0.009,-0.366,0.549,0.916,93.333,22396.000,1.000
141985.266,135854.625,225356.734,225349.500,133542.109,160019.984,132907.234,147889.344,-0.022,1.015,-0.010,-0.275,0.397,0.916,93.333,22397.000,1.000
142775.172,136211.891,225948.969,225481.453,134193.984,160548.391,133108.750,148519.922,-0.022,1.015,-0.009,-0.214,0.305,1.007,93.333,22398.000,1.000
142333.234,135904.516,225690.578,225371.578,133911.547,160221.156,132936.922,148136.016,-0.022,1.017,-0.007,-0.183,0.305,1.038,93.333,22399.000,1.000
141613.500,135588.906,225158.156,225262.672,133333.969,159749.891,132768.656,147583.031,-0.021,1.018,-0.006,-0.183,0.366,1.099,93.333,22400.000,1.000
141868.859,135791.859,225273.234,225328.297,133450.656,159944.984,132873.969,147783.656,-0.021,1.017,-0.008,-0.214,0.336,1.282,93.333,22401.000,1.000
142710.266,136197.328,225890.234,225479.313,134129.875,160520.141,133100.078,148467.359,-0.020,1.018,-0.010,-0.275,0.366,1.312,93.333,22402.000,1.000
142501.141,135996.063,225800.547,225406.984,134031.266,160349.906,132987.438,148266.813,-0.020,1.017,-0.010,-0.275,0.336,1.251,93.333,22403.000,1.000
141653.828,135593.469,225197.063,225262.141,133383.063,159789.766,132774.469,147624.781,-0.017,1.018,-0.010,-0.244,0.336,1.312,93.333,22404.000,1.000
141738.234,135712.828,225175.859,225291.109,133355.969,159860.047,132829.547,147679.141,-0.019,1.019,-0.009,-0.153,0.427,1.343,93.333,22405.000,1.000
142573.563,136136.344,225771.578,225444.984,134012.656,160437.969,133067.719,148358.188,-0.019,1.020,-0.010,-0.122,0.336,1.343,93.333,22406.000,1.000
142630.250,136070.625,225872.250,225429.516,134123.344,160447.891,133035.172,148371.250,-0.018,1.020,-0.011,-0.183,0.366,1.312,93.333,22407.000,1.000
141754.406,135633.344,225272.328,225283.516,133474.797,159862.719,132810.234,147702.750,-0.019,1.019,-0.009,-0.122,0.488,1.282,93.333,22408.000,1.000
141673.234,135669.375,225138.219,225282.531,133322.266,159817.219,132815.766,147626.219,-0.019,1.019,-0.010,-0.183,0.519,1.221,93.333,22409.000,1.000
142437.031,136076.000,225670.281,225426.391,133905.547,160351.328,133034.375,148251.172,-0.021,1.020,-0.014,-0.214,0.580,1.160,93.333,22410.000,1.000
142725.547,136130.797,225928.938,225446.953,134187.906,160516.281,133061.813,148452.063,-0.019,1.020,-0.013,-0.275,0.397,1.129,93.333,22411.000,1.000
141859.109,135673.484,225351.188,225288.609,133559.547,159927.547,132820.688,147781.156,-0.016,1.020,-0.013,-0.244,0.519,1.129,93.333,22412.000,1.000
141606.984,135627.438,225106.125,225264.203,133285.969,159770.359,132790.016,147577.672,-0.019,1.020,-0.011,-0.275,0.549,0.946,93.333,22413.000,1.000
142286.109,136016.188,225566.031,225406.000,133784.672,160253.078,133006.125,148132.172,-0.019,1.019,-0.013,-0.214,0.519,0.946,93.333,22414.000,1.000
142805.031,136199.828,225983.922,225476.719,134237.344,160576.813,133107.594,148520.547,-0.020,1.019,-0.011,-0.153,0.610,0.824,93.333,22415.000,1.000
142031.391,135760.844,225482.438,225318.016,133687.406,160041.625,132874.516,147904.359,-0.018,1.017,-0.012,-0.092,0.671,0.763,93.333,22416.000,1.000
141592.578,135603.922,225113.453,225245.422,133282.031,159755.609,132780.813,147560.234,-0.018,1.017,-0.010,-0.153,0.671,0.702,93.333,22417.000,1.000
142117.047,135916.406,225440.688,225344.313,133635.000,160127.813,132944.250,147985.547,-0.021,1.018,-0.012,-0.122,0.702,0.580,93.333,22418.000,1.000
142803.250,136201.438,225971.047,225448.734,134214.281,160575.469,133100.172,148520.281,-0.021,1.019,-0.014,0.000,0.702,0.458,93.333,22419.000,1.000
142186.156,135820.922,225590.719,225318.297,133795.219,160134.703,132888.547,148007.625,-0.021,1.018,-0.012,-0.031,0.671,0.305,93.333,22420.000,1.000
141596.156,135583.547,225136.266,225236.391,133298.031,159749.172,132763.641,147553.625,-0.019,1.017,-0.013,-0.061,0.519,0.275,93.333,22421.000,1.000
141994.828,135853.906,225367.016,225329.641,133544.266,160045.031,132914.563,147877.453,-0.020,1.014,-0.017,-0.092,0.580,0.305,93.333,22422.000,1.000
142779.547,136209.297,225954.875,225459.734,134193.078,160570.016,133113.938,148508.219,-0.019,1.016,-0.014,0.092,0.549,0.305,93.333,22423.000,1.000
142348.344,135909.250,225707.031,225354.859,133921.828,160252.359,132946.219,148140.844,-0.018,1.017,-0.015,0.214,0.549,0.305,93.333,22424.000,1.000
141610.828,135577.281,225159.688,225232.906,133327.359,159763.391,132760.703,147573.734,-0.017,1.020,-0.013,0.305,0.671,0.305,93.333,22425.000,1.000
141854.281,135774.156,225264.563,225292.719,133434.828,159947.125,132860.828,147760.781,-0.018,1.021,-0.013,0.366,0.763,0.488,93.333,22426.000,1.000
142687.375,136178.094,225875.656,225436.484,134108.594,160517.813,133088.469,148437.313,-0.021,1.019,-0.017,0.336,0.732,0.519,93.333,22427.000,1.000
142507.578,135996.422,225807.438,225373.984,134032.156,160363.672,132991.094,148257.781,-0.020,1.017,-0.015,0.214,0.824,0.458,93.333,22428.000,1.000
141659.641,135595.438,225209.484,225233.797,133388.422,159798.797,132780.984,147620.219,-0.022,1.015,-0.016,0.122,0.793,0.488,93.333,22429.000,1.000
141742.250,135718.016,225191.516,225268.406,133364.016,159870.063,132840.797,147678.078,-0.021,1.016,-0.014,0.275,0.732,0.458,93.333,22430.000,1.000
142565.516,136139.750,225779.266,225423.516,134011.500,160439.219,133075.047,148351.578,-0.024,1.016,-0.015,0.366,0.763,0.427,93.333,22431.000,1.000
142627.656,136073.141,225876.734,225398.047,134113.953,160444.047,133032.766,148359.359,-0.027,1.018,-0.017,0.397,0.732,0.336,93.333,22432.000,1.000
141751.906,135635.672,225283.250,225251.688,133466.469,159860.672,132805.125,147692.641,-0.026,1.019,-0.015,0.488,0.732,0.336,93.333,22433.000,1.000
141669.656,135675.813,225150.563,225257.141,133310.641,159815.703,132813.453,147615.672,-0.029,1.017,-0.016,0.488,0.519,0.336,93.333,22434.000,1.000
142429.172,136084.484,225680.297,225402.156,133888.125,160345.609,133037.406,148237.141,-0.030,1.020,-0.018,0.488,0.458,0.183,93.333,22435.000,1.000
142725.641,136142.250,225949.234,225422.984,134178.781,160518.797,133069.688,148446.250,-0.030,1.022,-0.017,0.519,0.458,0.031,93.333,22436.000,1.000
141875.922,135689.672,225382.313,225268.672,133560.625,159940.063,132831.594,147785.094,-0.032,1.022,-0.015,0.458,0.183,0.000,93.333,22437.000,1.000
141624.859,135642.375,225135.000,225246.672,133282.297,159781.000,132798.250,147577.406,-0.032,1.021,-0.015,0.366,0.031,0.000,93.333,22438.000,1.000
142275.563,136010.641,225575.516,225373.641,133760.891,160245.922,132994.313,148114.109,-0.031,1.022,-0.017,0.366,-0.153,-0.092,93.333,22439.000,1.000
142787.234,136194.906,225993.406,225445.063,134217.578,160574.406,133095.969,148507.953,-0.031,1.020,-0.018,0.275,-0.092,-0.061,93.333,22440.000,1.000
142016.828,135758.063,225489.953,225290.484,133665.313,160037.063,132858.422,147890.594,-0.027,1.020,-0.019,0.122,-0.305,-0.122,93.333,22441.000,1.000
141585.609,135605.719,225123.109,225230.219,133258.781,159752.844,132766.500,147544.141,-0.024,1.022,-0.018,0.031,-0.336,-0.183,93.333,22442.000,1.000
142112.578,135928.031,225453.031,225338.594,133618.563,160135.859,132942.281,147972.844,-0.025,1.023,-0.019,0.000,-0.397,-0.122,93.333,22443.000,1.000
142801.641,136219.578,225984.375,225450.609,134203.094,160590.047,133109.922,148518.047,-0.024,1.021,-0.015,-0.061,-0.427,-0.061,93.333,22444.000,1.000
142192.156,135843.531,225603.141,225321.953,133783.156,160152.219,132905.625,148014.063,-0.026,1.022,-0.018,-0.153,-0.397,0.031,93.333,22445.000,1.000
141588.469,135592.125,225136.703,225228.344,133277.109,159753.375,132764.813,147551.656,-0.024,1.024,-0.019,-0.183,-0.336,0.000,93.333,22446.000,1.000
141970.234,135849.344,225353.250,225310.875,133511.625,160034.922,132900.625,147864.484,-0.022,1.021,-0.021,-0.336,-0.397,0.122,93.333,22447.000,1.000
142756.391,136205.281,225940.656,225442.828,134161.703,160558.484,133102.406,148499.984,-0.024,1.021,-0.025,-0.488,-0.458,0.183,93.333,22448.000,1.000
142354.250,135921.234,225707.844,225346.281,133900.906,160248.250,132944.063,148143.172,-0.024,1.021,-0.023,-0.397,-0.488,0.275,93.333,22449.000,1.000
141608.859,135588.188,225160.844,225227.906,133306.531,159749.000,132763.016,147574.891,-0.026,1.019,-0.019,-0.397,-0.397,0.397,93.333,22450.000,1.000
141844.438,135782.297,225259.641,225287.891,133408.094,159925.938,132859.484,147756.750,-0.023,1.017,-0.019,-0.488,-0.519,0.397,93.333,22451.000,1.000
142681.109,136189.188,225869.125,225440.953,134081.234,160498.141,133088.281,148436.422,-0.024,1.018,-0.019,-0.519,-0.458,0.397,93.333,22452.000,1.000
142513.031,136011.172,225799.484,225379.531,134002.563,160348.109,132988.688,148259.313,-0.026,1.016,-0.019,-0.641,-0.427,0.458,93.333,22453.000,1.000
141666.969,135606.781,225199.922,225243.813,133357.750,159783.594,132777.063,147618.344,-0.026,1.016,-0.023,-0.610,-0.397,0.488,93.333,22454.000,1.000
141744.125,135722.922,225179.000,225276.094,133328.156,159848.156,132829.000,147664.484,-0.026,1.016,-0.020,-0.610,-0.366,0.488,93.333,22455.000,1.000
142566.313,136142.781,225767.563,225431.563,133978.422,160419.469,133066.469,148337.188,-0.025,1.016,-0.021,-0.610,-0.275,0.427,93.333,22456.000,1.000
142638.641,136082.703,225875.203,225411.984,134097.688,160435.641,133033.828,148359.891,-0.023,1.017,-0.022,-0.519,-0.183,0.427,93.333,22457.000,1.000
141753.344,135633.438,225266.969,225256.688,133436.172,159839.391,132799.047,147682.625,-0.022,1.019,-0.020,-0.641,-0.153,0.275,93.333,22458.000,1.000
141656.594,135660.703,225124.719,225254.906,133271.297,159786.109,132802.531,147597.156,-0.023,1.017,-0.018,-0.641,-0.122,0.183,93.333,22459.000,1.000
142406.453,136062.313,225650.172,225395.984,133849.859,160315.563,133020.688,148216.031,-0.025,1.017,-0.015,-0.610,-0.153,0.183,93.333,22460.000,1.000
142723.859,136137.953,225933.594,225427.813,134159.734,160504.484,133062.719,148439.375,-0.024,1.017,-0.012,-0.671,-0.031,0.214,93.333,22461.000,1.000
141871.719,135686.094,225366.484,225273.500,133539.875,159926.203,132823.906,147773.734,-0.025,1.020,-0.017,-0.641,-0.061,0.092,93.333,22462.000,1.000
141607.609,135629.406,225113.281,225247.219,133254.219,159762.500,132788.234,147561.219,-0.024,1.020,-0.019,-0.610,0.000,0.122,93.333,22463.000,1.000
142258.047,135998.844,225549.500,225374.531,133729.875,160226.781,132988.500,148097.563,-0.024,1.020,-0.017,-0.732,0.061,0.000,93.333,22464.000,1.000
142784.109,136188.469,225974.531,225443.641,134197.109,160563.500,133094.984,148502.406,-0.024,1.019,-0.016,-0.916,0.183,0.000,93.333,22465.000,1.000
142017.172,135751.359,225476.094,225290.391,133655.844,160030.891,132861.453,147890.406,-0.025,1.021,-0.017,-0.885,0.214,0.000,93.333,22466.000,1.000
141571.313,135593.563,225100.938,225229.234,133244.484,159738.813,132773.750,147542.000,-0.025,1.022,-0.016,-0.977,0.275,0.031,93.333,22467.000,1.000
142089.516,135915.422,225433.359,225342.438,133603.625,160120.844,132945.594,147977.859,-0.022,1.022,-0.015,-0.916,0.305,-0.061,93.333,22468.000,1.000
142754.781,136194.813,225959.250,225447.750,134185.938,160564.563,133100.000,148524.047,-0.023,1.021,-0.017,-0.946,0.305,0.061,93.333,22469.000,1.000
142098.000,135800.172,225556.109,225306.578,133752.219,160102.328,132882.469,148008.875,-0.024,1.020,-0.018,-1.129,0.427,0.031,93.333,22470.000,1.000
141562.813,135584.609,225108.625,225222.266,133251.359,159732.094,132754.969,147543.516,-0.025,1.018,-0.017,-1.038,0.366,0.061,93.333,22471.000,1.000
141944.047,135843.453,225327.859,225313.469,133489.188,160015.516,132895.516,147855.719,-0.024,1.020,-0.016,-1.129,0.397,0.122,93.333,22472.000,1.000
142727.078,136199.828,225912.938,225442.750,134144.000,160542.750,133098.750,148492.484,-0.026,1.017,-0.015,-1.221,0.458,0.214,93.333,22473.000,1.000
142264.922,135889.578,225660.891,225339.031,133881.328,160212.484,132941.563,148137.438,-0.024,1.018,-0.014,-1.221,0.427,0.153,93.333,22474.000,1.000
141596.781,135590.969,225137.594,225226.297,133302.953,159750.969,132767.484,147575.609,-0.026,1.019,-0.010,-1.282,0.366,0.153,93.333,22475.000,1.000
141816.375,135768.531,225221.828,225278.688,133391.109,159913.234,132850.906,147744.859,-0.027,1.020,-0.013,-1.282,0.275,0.153,93.333,22476.000,1.000
142649.563,136175.688,225830.063,225430.313,134065.141,160484.734,133081.484,148430.344,-0.029,1.020,-0.015,-1.373,0.244,0.244,93.333,22477.000,1.000
142419.781,135971.391,225750.391,225366.297,133989.422,160310.563,132979.922,148259.578,-0.030,1.020,-0.010,-1.343,0.366,0.244,93.333,22478.000,1.000
141651.063,135602.938,225180.516,225232.375,133363.563,159780.828,132775.719,147625.672,-0.029,1.017,-0.010,-1.312,0.305,0.244,93.333,22479.000,1.000
141738.141,135723.828,225167.281,225267.422,133338.094,159850.750,132834.719,147677.984,-0.032,1.019,-0.009,-1.251,0.244,0.336,93.333,22480.000,1.000
142554.344,136140.813,225750.219,225419.953,133982.625,160418.297,133069.781,148349.781,-0.031,1.020,-0.014,-1.251,0.122,0.305,93.333,22481.000,1.000
142576.156,136059.188,225847.484,225396.875,134100.734,160416.063,133032.313,148376.078,-0.033,1.018,-0.013,-1.312,0.031,0.183,93.333,22482.000,1.000
141741.266,135633.609,225256.234,225239.609,133455.828,159844.750,132800.297,147702.484,-0.034,1.020,-0.013,-1.343,0.031,0.275,93.333,22483.000,1.000
141660.797,135664.016,225117.391,225235.766,133294.906,159797.016,132803.703,147610.750,-0.032,1.020,-0.009,-1.343,0.000,0.305,93.333,22484.000,1.000
142413.703,136073.578,225645.609,225383.734,133875.594,160330.047,133033.484,148229.984,-0.032,1.018,-0.010,-1.343,-0.122,0.275,93.333,22485.000,1.000
142740.750,136148.141,225937.969,225416.281,134194.875,160522.547,133073.891,148466.016,-0.033,1.019,-0.007,-1.221,-0.153,0.336,93.333,22486.000,1.000
141882.172,135685.469,225364.156,225255.531,133567.500,159932.188,132824.266,147793.313,-0.033,1.017,-0.007,-1.282,-0.336,0.305,93.333,22487.000,1.000
141600.000,135612.328,225092.266,225218.781,133263.250,159752.938,132775.531,147560.500,-0.030,1.017,-0.008,-1.251,-0.397,0.397,93.333,22488.000,1.000
142241.500,135977.469,225524.734,225345.469,133734.609,160215.344,132976.609,148090.953,-0.030,1.017,-0.014,-1.251,-0.458,0.336,93.333,22489.000,1.000
142773.297,136165.406,225952.641,225416.016,134205.328,160552.859,133077.906,148497.484,-0.031,1.016,-0.011,-1.190,-0.427,0.458,93.333,22490.000,1.000
142024.688,135740.906,225470.281,225272.609,133681.234,160035.375,132851.172,147899.984,-0.030,1.014,-0.011,-1.007,-0.366,0.519,93.333,22491.000,1.000
141563.969,135581.391,225086.281,225212.875,133264.063,159735.047,132759.359,147540.203,-0.030,1.013,-0.009,-0.946,-0.488,0.610,93.333,22492.000,1.000
142079.672,135898.875,225412.609,225322.047,133616.500,160108.688,132930.219,147964.266,-0.030,1.014,-0.010,-0.885,-0.488,0.732,93.333,22493.000,1.000
142777.938,136190.266,225947.172,225427.188,134202.109,160564.844,133094.266,148511.172,-0.029,1.015,-0.011,-0.854,-0.488,0.793,93.333,22494.000,1.000
142170.328,135808.406,225568.625,225290.219,133782.703,160126.656,132884.172,148005.125,-0.027,1.015,-0.010,-0.854,-0.366,0.916,93.333,22495.000,1.000
141547.875,135552.703,225094.422,225196.703,133264.688,159716.984,132742.906,147531.094,-0.024,1.015,-0.007,-0.793,-0.397,0.946,93.333,22496.000,1.000
141929.656,135815.641,225311.313,225285.125,133495.531,159997.188,132881.484,147838.828,-0.025,1.016,-0.008,-0.824,-0.244,1.099,93.333,22497.000,1.000
142742.891,136198.391,225921.344,225432.734,134169.656,160547.578,133104.281,148496.688,-0.027,1.016,-0.008,-0.641,-0.366,1.160,93.333,22498.000,1.000
142353.438,135925.531,225706.406,225342.156,133933.266,160259.328,132959.719,148158.641,-0.028,1.016,-0.009,-0.671,-0.397,1.221,93.333,22499.000,1.000
141606.438,135591.234,225155.484,225227.359,133341.219,159766.078,132786.625,147585.719,-0.028,1.015,-0.009,-0.580,-0.275,1.221,93.333,22500.000,1.000
141827.453,135773.359,225241.125,225284.406,133432.047,159934.875,132878.719,147755.594,-0.024,1.015,-0.007,-0.580,-0.244,1.282,93.333,22501.000,1.000
142664.125,136178.188,225853.922,225433.266,134111.453,160507.266,133105.359,148438.922,-0.027,1.015,-0.009,-0.641,-0.153,1.282,93.333,22502.000,1.000
142505.516,136002.141,225793.406,225368.000,134043.063,160359.828,133005.141,148269.328,-0.026,1.016,-0.008,-0.519,-0.214,1.251,93.333,22503.000,1.000
141653.109,135589.891,225191.063,225222.984,133390.922,159788.250,132783.672,147620.859,-0.026,1.017,-0.012,-0.397,-0.153,1.160,93.333,22504.000,1.000
141713.281,135699.063,225159.594,225253.375,133349.344,159843.141,132831.859,147660.016,-0.026,1.018,-0.007,-0.458,-0.061,1.160,93.333,22505.000,1.000
142531.359,136122.578,225746.547,225408.766,133993.000,160415.797,133070.672,148333.516,-0.024,1.015,-0.008,-0.427,-0.061,1.099,93.333,22506.000,1.000
142625.688,136074.563,225869.219,225390.000,134124.063,160447.984,133045.094,148371.516,-0.027,1.017,-0.009,-0.336,-0.061,1.068,93.333,22507.000,1.000
141743.422,135622.078,225268.578,225233.984,133473.359,159853.156,132807.547,147695.234,-0.024,1.018,-0.011,-0.275,0.000,1.129,93.333,22508.000,1.000
141616.547,135632.000,225108.625,225224.063,133291.859,159780.375,132799.766,147590.547,-0.024,1.017,-0.010,-0.214,0.092,1.038,93.333,22509.000,1.000
142364.078,136041.750,225631.391,225373.813,133864.688,160315.031,133029.719,148211.828,-0.024,1.018,-0.011,-0.061,0.061,1.007,93.333,22510.000,1.000
142699.625,136123.828,225921.875,225404.203,134181.016,160513.250,133070.406,148451.172,-0.024,1.018,-0.011,-0.031,0.305,1.007,93.333,22511.000,1.000
141846.047,135661.422,225350.203,225240.594,133558.469,159926.109,132822.922,147781.156,-0.025,1.019,-0.008,-0.031,0.336,0.977,93.333,22512.000,1.000
141568.000,135597.125,225083.688,225215.109,133257.625,159746.406,132784.203,147554.422,-0.027,1.016,-0.008,0.031,0.427,0.885,93.333,22513.000,1.000
142225.313,135983.188,225526.703,225361.750,133737.375,160217.766,133002.188,148098.281,-0.027,1.017,-0.010,0.122,0.549,0.916,93.333,22514.000,1.000
142769.188,136184.172,225963.547,225438.625,134216.328,160561.531,133111.172,148517.156,-0.027,1.018,-0.011,0.183,0.427,0.885,93.333,22515.000,1.000
142005.469,135742.688,225466.891,225278.234,133676.047,160026.078,132869.594,147904.719,-0.028,1.018,-0.010,0.153,0.519,0.916,93.333,22516.000,1.000
141548.953,135576.656,225081.266,225210.641,133253.328,159720.563,132769.641,147538.156,-0.030,1.019,-0.007,0.214,0.519,0.885,93.333,22517.000,1.000
142064.203,135893.063,225403.766,225321.234,133601.391,160092.953,132942.016,147957.828,-0.030,1.017,-0.010,0.305,0.397,0.885,93.333,22518.000,1.000
142768.734,136190.078,225944.406,225433.984,134196.844,160560.719,133110.094,148512.328,-0.027,1.017,-0.010,0.336,0.336,0.977,93.333,22519.000,1.000
142180.438,135823.328,225580.156,225306.219,133798.438,160138.547,132905.719,148020.234,-0.027,1.018,-0.010,0.397,0.427,1.038,93.333,22520.000,1.000
141550.563,135562.531,225097.813,225209.922,133275.328,159723.156,132762.125,147537.703,-0.026,1.018,-0.011,0.397,0.488,0.977,93.333,22521.000,1.000
141914.719,135810.016,225296.469,225290.750,133490.078,159989.141,132896.234,147829.172,-0.025,1.018,-0.010,0.427,0.397,1.007,93.333,22522.000,1.000
142720.281,136185.344,225897.922,225431.563,134153.828,160532.734,133109.469,148477.188,-0.027,1.019,-0.011,0.488,0.397,1.007,93.333,22523.000,1.000
142351.563,135917.484,225692.906,225340.734,133922.094,160254.234,132956.594,148144.234,-0.026,1.020,-0.011,0.549,0.427,1.038,93.333,22524.000,1.000
141592.859,135572.719,225143.234,225218.609,133326.016,159753.203,132771.875,147567.031,-0.026,1.020,-0.012,0.519,0.366,0.916,93.333,22525.000,1.000
141804.922,135752.875,225228.797,225271.703,133413.016,159917.438,132860.469,147732.438,-0.026,1.021,-0.011,0.397,0.397,0.854,93.333,22526.000,1.000
142635.344,136158.781,225837.125,225420.219,134083.828,160486.344,133081.938,148413.625,-0.028,1.020,-0.012,0.397,0.397,0.946,93.333,22527.000,1.000
142485.938,135987.484,225785.984,225356.469,134024.906,160348.297,132982.609,148252.063,-0.029,1.021,-0.010,0.336,0.275,0.977,93.333,22528.000,1.000
141639.172,135582.828,225194.188,225217.797,133382.969,159784.938,132773.922,147609.047,-0.028,1.019,-0.012,0.336,0.336,0.977,93.333,22529.000,1.000
141700.047,135699.141,225169.078,225251.500,133344.969,159845.734,132836.250,147654.203,-0.027,1.018,-0.008,0.244,0.183,1.038,93.333,22530.000,1.000
142512.406,136121.234,225750.391,225402.953,133981.906,160413.656,133080.500,148326.906,-0.029,1.019,-0.011,0.244,0.092,1.007,93.333,22531.000,1.000
142614.859,136079.031,225879.938,225386.328,134122.625,160448.516,133056.719,148375.094,-0.030,1.021,-0.013,0.305,0.000,0.977,93.333,22532.000,1.000
141726.250,135622.438,225271.438,225221.906,133463.531,159843.688,132806.469,147689.250,-0.030,1.020,-0.012,0.244,-0.031,0.977,93.333,22533.000,1.000
141617.438,135648.453,225120.250,225227.188,133292.313,159783.328,132820.156,147598.328,-0.030,1.020,-0.017,0.214,-0.061,0.916,93.333,22534.000,1.000
142368.375,136058.656,225643.375,225385.438,133868.984,160317.266,133057.172,148223.813,-0.030,1.020,-0.014,0.122,-0.183,1.007,93.333,22535.000,1.000
142710.359,136138.938,225936.984,225413.688,134193.359,160514.406,133092.484,148466.188,-0.029,1.020,-0.013,0.214,-0.153,1.007,93.333,22536.000,1.000
141855.703,135670.531,225357.984,225243.719,133565.188,159918.953,132832.672,147785.094,-0.028,1.019,-0.013,0.122,-0.305,1.038,93.333,22537.000,1.000
141562.641,135597.219,225077.703,225211.359,133256.547,159728.078,132785.906,147548.250,-0.028,1.019,-0.016,0.183,-0.397,1.007,93.333,22538.000,1.000
142206.188,135970.234,225502.016,225341.625,133724.500,160186.109,132986.094,148075.938,-0.028,1.019,-0.016,0.153,-0.519,0.946,93.333,22539.000,1.000
142763.375,136179.078,225946.469,225418.875,134212.750,160539.266,133101.063,148502.766,-0.027,1.020,-0.014,0.031,-0.519,1.007,93.333,22540.000,1.000
142018.516,135755.469,225466.531,225275.109,133687.672,160021.953,132877.734,147906.594,-0.028,1.021,-0.016,-0.031,-0.549,1.038,93.333,22541.000,1.000
141550.922,135586.938,225080.375,225213.234,133260.578,159717.078,132782.156,147540.391,-0.025,1.023,-0.015,-0.092,-0.702,1.099,93.333,22542.000,1.000
142053.203,135895.297,225391.781,225315.969,133596.469,160079.797,132942.813,147948.797,-0.025,1.022,-0.016,-0.153,-0.702,1.068,93.333,22543.000,1.000
142756.313,136192.672,225932.703,225427.094,134192.813,160543.922,133110.641,148508.938,-0.026,1.020,-0.010,-0.122,-0.732,1.038,93.333,22544.000,1.000
142167.734,135820.297,225568.813,225294.688,133794.328,160120.219,132909.734,148021.578,-0.024,1.021,-0.013,-0.122,-0.732,1.007,93.333,22545.000,1.000
141539.828,135557.344,225084.406,225196.969,133265.938,159705.375,132767.844,147536.000,-0.025,1.021,-0.012,-0.092,-0.824,1.068,93.333,22546.000,1.000
141892.188,135799.188,225278.766,225273.234,133473.625,159968.406,132893.547,147822.906,-0.025,1.020,-0.013,-0.153,-0.793,0.916,93.333,22547.000,1.000
142694.344,136166.203,225878.328,225408.141,134137.109,160511.734,133098.469,148470.219,-0.024,1.017,-0.017,-0.183,-0.824,0.854,93.333,22548.000,1.000
142335.109,135897.984,225674.938,225316.594,133913.422,160233.766,132952.828,148142.813,-0.025,1.016,-0.015,-0.122,-0.793,0.885,93.333,22549.000,1.000
141567.547,135550.906,225113.016,225192.938,133306.531,159722.984,132770.078,147560.063,-0.026,1.012,-0.019,0.000,-0.824,0.824,93.333,22550.000,1.000
141777.484,135738.578,225197.406,225252.938,133390.844,159887.313,132863.609,147727.250,-0.027,1.013,-0.017,0.061,-0.824,0.824,93.333,22551.000,1.000
142621.031,136161.922,225817.719,225412.609,134073.188,160470.609,133104.906,148421.938,-0.025,1.016,-0.020,0.153,-0.824,0.885,93.333,22552.000,1.000
142483.969,135999.016,225776.406,225354.859,134023.844,160344.984,133011.578,148274.781,-0.025,1.016,-0.016,0.031,-0.885,0.763,93.333,22553.000,1.000
141634.422,135585.516,225178.813,225208.953,133373.672,159772.688,132785.547,147622.453,-0.026,1.018,-0.015,0.061,-0.854,0.702,93.333,22554.000,1.000
141689.859,135695.484,225147.875,225238.094,133328.516,159823.563,132833.922,147656.531,-0.026,1.016,-0.015,0.061,-0.702,0.702,93.333,22555.000,1.000
142501.141,136120.250,225728.313,225396.969,133968.938,160393.625,133078.625,148329.219,-0.024,1.016,-0.014,0.061,-0.824,0.671,93.333,22556.000,1.000
142619.422,136083.953,225864.203,225385.703,134121.563,160440.031,133061.109,148387.609,-0.023,1.016,-0.016,0.061,-0.824,0.641,93.333,22557.000,1.000
141741.453,135630.391,225258.750,225224.234,133465.219,159838.938,132813.797,147705.078,-0.023,1.018,-0.017,0.122,-0.854,0.824,93.333,22558.000,1.000
141613.422,135642.547,225093.078,225216.359,133278.266,159760.891,132804.328,147592.688,-0.021,1.018,-0.018,0.153,-0.946,0.824,93.333,22559.000,1.000
142347.266,136042.203,225604.125,225359.328,133841.891,160281.953,133023.188,148203.516,-0.023,1.019,-0.020,0.061,-0.671,0.854,93.333,22560.000,1.000
142693.359,136131.078,225904.359,225390.266,134173.328,160491.344,133069.063,148454.656,-0.022,1.021,-0.021,0.122,-0.671,0.885,93.333,22561.000,1.000
141845.422,135671.875,225336.344,225226.922,133552.844,159906.359,132817.563,147781.969,-0.020,1.022,-0.017,0.000,-0.580,0.824,93.333,22562.000,1.000
141549.484,135600.797,225063.484,225197.766,133244.828,159719.500,132775.984,147544.234,-0.019,1.025,-0.017,-0.061,-0.458,0.854,93.333,22563.000,1.000
142179.547,135963.703,225484.234,225326.688,133704.125,160171.094,132976.172,148063.859,-0.020,1.024,-0.019,-0.153,-0.275,0.977,93.333,22564.000,1.000
142747.188,136180.688,225934.938,225411.453,134201.047,160533.359,133101.156,148498.031,-0.020,1.025,-0.020,-0.214,-0.275,1.038,93.333,22565.000,1.000
142014.594,135761.469,225460.625,225265.813,133684.094,160021.594,132878.531,147904.547,-0.021,1.026,-0.017,-0.244,-0.305,1.007,93.333,22566.000,1.000
141547.250,135592.578,225076.625,225200.625,133263.344,159719.672,132782.250,147536.094,-0.024,1.025,-0.011,-0.305,-0.336,1.068,93.333,22567.000,1.000
142038.547,135897.625,225381.500,225302.375,133594.500,160076.938,132939.594,147936.641,-0.026,1.024,-0.013,-0.427,-0.244,1.038,93.333,22568.000,1.000
142749.063,136202.063,225924.016,225415.656,134193.359,160546.859,133107.688,148499.547,-0.028,1.025,-0.013,-0.549,-0.214,0.885,93.333,22569.000,1.000
142177.484,135838.359,225567.734,225290.938,133801.750,160133.094,132913.406,148017.109,-0.027,1.027,-0.013,-0.610,-0.183,0.763,93.333,22570.000,1.000
141540.469,135568.516,225082.797,225193.750,133271.922,159711.000,132764.719,147528.047,-0.028,1.025,-0.012,-0.793,-0.275,0.763,93.333,22571.000,1.000
141892.813,135815.281,225279.750,225273.141,133480.953,159970.547,132891.500,147817.719,-0.029,1.026,-0.009,-0.854,-0.336,0.702,93.333,22572.000,1.000
142698.375,136190.344,225881.641,225411.359,134146.953,160517.453,133104.906,148474.156,-0.030,1.023,-0.011,-0.977,-0.427,0.458,93.333,22573.000,1.000
142325.094,135908.719,225668.594,225310.875,133914.766,160233.047,132948.094,148142.984,-0.029,1.022,-0.009,-1.099,-0.549,0.336,93.333,22574.000,1.000
141550.031,135549.297,225103.453,225181.313,133300.719,159712.781,132749.969,147552.094,-0.029,1.019,-0.008,-1.160,-0.641,0.336,93.333,22575.000,1.000
141757.813,135733.031,225186.766,225243.547,133381.188,159871.484,132842.859,147718.484,-0.026,1.017,-0.010,-1.160,-0.610,0.366,93.333,22576.000,1.000
142609.406,136159.766,225809.672,225408.859,134066.125,160460.234,133090.422,148417.922,-0.025,1.017,-0.013,-1.160,-0.549,0.427,93.333,22577.000,1.000
142483.266,136002.766,225779.813,225354.406,134031.266,160343.469,133005.047,148286.750,-0.023,1.017,-0.009,-1.221,-0.671,0.336,93.333,22578.000,1.000
141627.281,135581.313,225167.906,225200.813,133366.703,159757.938,132775.094,147623.719,-0.023,1.017,-0.011,-1.221,-0.702,0.366,93.333,22579.000,1.000
141669.828,135678.141,225119.813,225225.125,133306.438,159796.734,132817.297,147647.406,-0.022,1.014,-0.010,-1.129,-0.641,0.458,93.333,22580.000,1.000
142475.219,136100.047,225694.609,225380.875,133942.750,160359.922,133055.109,148318.859,-0.022,1.012,-0.010,-1.190,-0.549,0.427,93.333,22581.000,1.000
142612.094,136077.609,225847.219,225379.266,134109.672,160419.188,133040.891,148392.438,-0.021,1.013,-0.010,-1.190,-0.458,0.488,93.333,22582.000,1.000
141731.344,135623.063,225245.422,225223.703,133459.672,159822.219,132797.625,147712.938,-0.021,1.013,-0.009,-1.099,-0.397,0.519,93.333,22583.000,1.000
141590.969,135628.875,225071.172,225216.453,133265.844,159742.734,132796.641,147595.813,-0.022,1.014,-0.012,-1.038,-0.336,0.610,93.333,22584.000,1.000
142328.578,136038.000,225581.688,225360.141,133828.656,160268.094,133024.000,148205.031,-0.024,1.013,-0.008,-0.824,-0.305,0.610,93.333,22585.000,1.000
142690.328,136134.828,225887.719,225393.031,134166.000,160484.641,133071.750,148462.625,-0.025,1.013,-0.009,-0.732,-0.275,0.580,93.333,22586.000,1.000
141853.828,135680.281,225330.000,225234.344,133556.781,159909.656,132826.500,147799.313,-0.028,1.013,-0.010,-0.671,-0.336,0.488,93.333,22587.000,1.000
141554.953,135606.875,225055.703,225207.875,133247.344,159720.563,132781.078,147557.547,-0.027,1.014,-0.010,-0.671,-0.275,0.519,93.333,22588.000,1.000
142183.828,135974.969,225477.969,225343.500,133706.000,160176.281,132983.859,148077.984,-0.028,1.014,-0.007,-0.580,-0.275,0.549,93.333,22589.000,1.000
142756.031,136193.922,225933.328,225429.063,134206.500,160546.688,133108.672,148517.781,-0.030,1.012,-0.008,-0.549,-0.336,0.671,93.333,22590.000,1.000
142027.281,135767.719,225463.219,225281.453,133690.531,160034.031,132874.688,147924.031,-0.031,1.013,-0.008,-0.488,-0.275,0.702,93.333,22591.000,1.000
141544.125,135586.313,225069.563,225213.422,133255.922,159716.281,132771.781,147545.125,-0.030,1.015,-0.011,-0.580,-0.336,0.671,93.333,22592.000,1.000
142031.484,135894.406,225373.719,225315.781,133584.844,160074.344,132934.141,147945.844,-0.030,1.015,-0.007,-0.427,-0.275,0.641,93.333,22593.000,1.000
142742.625,136199.828,225917.313,225427.094,134184.953,160547.141,133105.531,148511.078,-0.029,1.015,-0.009,-0.305,-0.275,0.671,93.333,22594.000,1.000
142180.797,135842.828,225568.359,225298.984,133796.922,160133.984,132905.359,148034.531,-0.029,1.014,-0.007,-0.336,-0.397,0.732,93.333,22595.000,1.000
141549.484,135573.891,225084.844,225202.688,133266.734,159711.625,132755.328,147543.250,-0.028,1.016,-0.007,-0.244,-0.427,0.671,93.333,22596.000,1.000
141900.141,135818.859,225277.703,225287.172,133470.234,159970.188,132887.656,147826.313,-0.027,1.018,-0.007,-0.214,-0.397,0.641,93.333,22597.000,1.000
142723.938,136209.125,225892.109,225439.438,134145.875,160530.422,133113.500,148491.938,-0.028,1.017,-0.007,-0.092,-0.366,0.641,93.333,22598.000,1.000
142386.703,135950.734,225706.313,225350.031,133937.469,160271.766,132973.031,148183.938,-0.027,1.018,-0.008,-0.183,-0.275,0.854,93.333,22599.000,1.000
141608.859,135592.484,225144.578,225224.063,133324.047,159751.953,132774.375,147591.344,-0.028,1.019,-0.010,-0.183,-0.244,0.824,93.333,22600.000,1.000
141798.047,135760.750,225207.875,225273.313,133383.234,159892.141,132849.484,147731.891,-0.028,1.021,-0.009,-0.244,-0.366,0.793,93.333,22601.000,1.000
142636.766,136175.688,225818.344,225425.750,134056.922,160464.344,133078.094,148417.109,-0.029,1.019,-0.011,-0.305,-0.275,0.854,93.333,22602.000,1.000
142536.281,136030.750,225802.875,225376.500,134039.313,160360.281,132999.141,148295.609,-0.029,1.019,-0.010,-0.244,-0.336,0.885,93.333,22603.000,1.000
141691.203,135619.031,225205.281,225239.344,133394.406,159788.250,132783.141,147645.625,-0.027,1.018,-0.013,-0.214,-0.366,0.946,93.333,22604.000,1.000
141714.359,135708.984,225144.484,225262.406,133323.063,159814.797,132824.797,147655.906,-0.026,1.019,-0.010,-0.122,-0.275,0.946,93.333,22605.000,1.000
142525.094,136135.625,225719.109,225416.547,133957.500,160382.797,133064.406,148322.703,-0.026,1.018,-0.009,0.000,-0.275,1.068,93.333,22606.000,1.000
142610.313,136088.953,225859.375,225406.000,134123.344,160424.828,133048.234,148398.688,-0.026,1.019,-0.009,-0.031,-0.275,1.160,93.333,22607.000,1.000
141778.109,135660.250,225269.109,225251.422,133476.313,159851.094,132818.625,147719.734,-0.027,1.019,-0.009,0.000,-0.183,1.221,93.333,22608.000,1.000
141661.250,135673.031,225099.156,225242.656,133273.266,159774.031,132817.016,147594.828,-0.026,1.019,-0.010,0.000,-0.153,1.282,93.333,22609.000,1.000
142378.922,136062.766,225596.250,225374.438,133817.938,160280.078,133026.234,148190.188,-0.026,1.018,-0.011,0.061,-0.153,1.312,93.333,22610.000,1.000
142706.063,136143.234,225902.750,225408.688,134166.266,160488.031,133078.266,148462.969,-0.026,1.018,-0.012,0.214,-0.092,1.282,93.333,22611.000,1.000
141887.719,135701.563,225349.766,225254.813,133563.484,159921.641,132843.219,147805.125,-0.025,1.018,-0.016,0.214,-0.061,1.434,93.333,22612.000,1.000
141614.141,135627.078,225065.531,225215.469,133238.391,159728.969,132784.656,147543.516,-0.024,1.019,-0.014,0.244,-0.031,1.434,93.333,22613.000,1.000
142232.469,135988.734,225482.891,225345.922,133691.953,160176.359,132984.219,148059.922,-0.025,1.018,-0.013,0.305,0.061,1.526,93.333,22614.000,1.000
142785.719,136202.328,225943.328,225435.594,134204.797,160543.109,133110.281,148514.922,-0.027,1.019,-0.014,0.427,0.153,1.495,93.333,22615.000,1.000
142039.531,135773.891,225466.969,225286.188,133687.047,160023.391,132882.203,147924.750,-0.027,1.018,-0.010,0.519,0.153,1.556,93.333,22616.000,1.000
141610.469,135616.625,225088.328,225216.906,133258.875,159728.344,132783.578,147545.125,-0.026,1.018,-0.010,0.549,0.183,1.465,93.333,22617.000,1.000
142078.953,135908.813,225385.250,225315.250,133581.000,160077.484,132942.188,147937.266,-0.027,1.019,-0.012,0.671,0.153,1.434,93.333,22618.000,1.000
142782.500,136209.656,225936.625,225430.672,134192.188,160552.141,133116.359,148513.672,-0.028,1.018,-0.010,0.702,0.214,1.343,93.333,22619.000,1.000
142186.156,135843.453,225579.891,225304.516,133808.719,160132.828,132923.500,148044.188,-0.030,1.019,-0.011,0.671,0.183,1.282,93.333,22620.000,1.000
141612.703,135601.609,225105.859,225206.438,133280.063,159735.594,132781.438,147549.328,-0.029,1.020,-0.013,0.793,0.153,1.312,93.333,22621.000,1.000
141939.313,135828.516,225286.469,225278.234,133468.438,159976.000,132896.594,147815.484,-0.029,1.018,-0.011,0.824,0.153,1.251,93.333,22622.000,1.000
142738.609,136198.938,225888.797,225416.734,134131.578,160518.438,133102.672,148469.234,-0.028,1.017,-0.014,0.854,0.153,1.190,93.333,22623.000,1.000
142405.469,135943.141,225711.328,225331.438,133933.172,160262.188,132966.875,148170.078,-0.025,1.017,-0.015,0.916,0.092,1.251,93.333,22624.000,1.000
141638.625,135596.063,225157.359,225214.047,133332.094,159752.391,132782.422,147583.750,-0.024,1.016,-0.017,1.007,0.153,1.251,93.333,22625.000,1.000
141822.359,135765.750,225222.172,225263.031,133397.984,159896.156,132863.063,147727.422,-0.023,1.016,-0.017,1.038,0.183,1.221,93.333,22626.000,1.000
142638.828,136168.891,225817.813,225404.203,134060.313,160460.594,133083.547,148404.688,-0.024,1.020,-0.019,1.038,0.214,1.312,93.333,22627.000,1.000
142543.703,136024.859,225801.453,225344.391,134043.234,160357.234,132999.594,148286.938,-0.022,1.021,-0.012,1.099,0.305,1.373,93.333,22628.000,1.000
141688.969,135608.484,225206.266,225204.031,133400.313,159783.516,132782.875,147637.219,-0.021,1.021,-0.015,1.038,0.336,1.404,93.333,22629.000,1.000
141699.969,135698.156,225141.719,225229.953,133323.063,159811.219,132827.750,147640.703,-0.021,1.019,-0.020,1.038,0.519,1.556,93.333,22630.000,1.000
142489.609,136116.313,225704.172,225384.094,133946.953,160368.953,133064.672,148297.219,-0.022,1.015,-0.019,1.099,0.488,1.648,93.333,22631.000,1.000
142648.391,136103.000,225871.359,225381.141,134129.875,160442.078,133055.922,148386.266,-0.021,1.014,-0.016,1.221,0.488,1.678,93.333,22632.000,1.000
141773.641,135649.438,225275.281,225223.516,133480.781,159847.078,132811.922,147705.250,-0.024,1.016,-0.015,1.129,0.732,1.801,93.333,22633.000,1.000
141615.922,135648.625,225092.625,225213.781,133273.438,159753.469,132801.641,147574.625,-0.027,1.017,-0.016,1.129,0.763,1.740,93.333,22634.000,1.000
142334.484,136050.063,225595.094,225359.953,133823.297,160271.406,133031.063,148178.844,-0.029,1.020,-0.019,1.129,0.702,1.617,93.333,22635.000,1.000
142730.375,136164.781,225931.625,225404.297,134192.109,160515.031,133093.375,148471.016,-0.030,1.021,-0.018,0.977,0.702,1.556,93.333,22636.000,1.000
141902.375,135706.563,225381.953,225240.859,133592.531,159943.547,132843.750,147811.281,-0.031,1.021,-0.014,0.885,0.732,1.434,93.333,22637.000,1.000
141563.797,135609.734,225077.344,225199.016,133256.906,159727.984,132785.906,147540.828,-0.030,1.021,-0.017,0.824,0.610,1.343,93.333,22638.000,1.000
142162.016,135961.734,225474.656,225323.297,133690.531,160162.688,132978.406,148039.984,-0.031,1.020,-0.015,0.824,0.519,1.282,93.333,22639.000,1.000
142750.672,136193.563,225941.016,225414.766,134203.719,160545.078,133109.203,148498.109,-0.028,1.021,-0.018,0.702,0.397,1.190,93.333,22640.000,1.000
142044.719,135782.734,225487.266,225271.531,133705.016,160047.797,132886.938,147922.875,-0.027,1.022,-0.021,0.580,0.397,1.160,93.333,22641.000,1.000
141543.953,135592.484,225083.063,225197.688,133256.453,159715.828,132775.453,147529.656,-0.026,1.023,-0.021,0.580,0.305,1.160,93.333,22642.000,1.000
142010.109,135889.047,225377.203,225296.469,133570.281,160059.063,132933.781,147917.063,-0.025,1.021,-0.020,0.610,0.397,0.977,93.333,22643.000,1.000
142737.172,136207.516,225935.375,225414.766,134184.328,160546.594,133114.750,148500.438,-0.025,1.023,-0.022,0.427,0.427,1.099,93.333,22644.000,1.000
142196.172,135855.422,225605.375,225292.266,133818.016,160153.125,132922.609,148043.484,-0.024,1.023,-0.018,0.458,0.305,1.099,93.333,22645.000,1.000
141535.813,135566.734,225098.078,225183.203,133265.391,159708.234,132759.000,147526.531,-0.024,1.020,-0.023,0.366,0.366,1.099,93.333,22646.000,1.000
141855.625,135793.469,225261.875,225252.047,133439.109,159941.578,132872.094,147783.391,-0.023,1.020,-0.025,0.153,0.519,1.160,93.333,22647.000,1.000
142676.734,136182.297,225874.938,225400.188,134117.531,160502.438,133094.359,148456.359,-0.020,1.020,-0.023,0.092,0.488,1.068,93.333,22648.000,1.000
142371.328,135944.656,225710.609,225322.406,133937.375,160263.531,132968.391,148175.000,-0.020,1.021,-0.023,0.031,0.549,1.160,93.333,22649.000,1.000
141583.375,135578.984,225138.766,225194.547,133318.688,159736.125,132773.922,147572.391,-0.021,1.021,-0.020,-0.031,0.610,1.190,93.333,22650.000,1.000
141758.438,135746.438,225194.813,225247.219,133373.141,159872.828,132860.922,147710.703,-0.021,1.020,-0.022,-0.122,0.641,1.190,93.333,22651.000,1.000
142574.547,136153.156,225791.344,225391.063,134036.984,160439.125,133087.563,148391.453,-0.019,1.020,-0.021,-0.244,0.641,1.282,93.333,22652.000,1.000
142494.969,136015.016,225787.406,225335.453,134029.922,160345.703,132999.406,148281.125,-0.020,1.020,-0.019,-0.183,0.641,1.343,93.333,22653.000,1.000
141644.172,135598.828,225193.031,225194.016,133383.234,159774.391,132785.375,147627.734,-0.021,1.019,-0.020,-0.244,0.702,1.251,93.333,22654.000,1.000
141656.688,135686.359,225130.531,225220.031,133309.031,159806.391,132837.047,147633.094,-0.022,1.022,-0.020,-0.397,0.702,1.312,93.333,22655.000,1.000
142447.500,136100.047,225690.406,225368.000,133929.156,160360.188,133063.516,148286.750,-0.024,1.019,-0.020,-0.336,0.610,1.282,93.333,22656.000,1.000
142618.625,136090.844,225865.375,225367.203,134124.422,160439.844,133048.672,148386.891,-0.025,1.018,-0.015,-0.427,0.854,1.343,93.333,22657.000,1.000
141744.484,135634.063,225261.703,225204.828,133469.516,159837.953,132800.219,147699.703,-0.027,1.016,-0.015,-0.397,0.854,1.251,93.333,22658.000,1.000
141589.453,135633.438,225073.500,225198.031,133257.438,159741.578,132791.266,147564.531,-0.025,1.018,-0.017,-0.519,0.824,1.190,93.333,22659.000,1.000
142304.891,136028.344,225566.391,225340.906,133801.031,160251.281,133009.063,148159.344,-0.025,1.020,-0.018,-0.549,0.824,1.190,93.333,22660.000,1.000
142705.078,136149.125,225903.375,225386.781,134171.625,160497.250,133073.438,148456.984,-0.021,1.021,-0.014,-0.580,0.946,1.190,93.333,22661.000,1.000
141885.578,135701.375,225359.063,225235.500,133579.750,159934.156,132835.625,147808.422,-0.020,1.022,-0.017,-0.702,1.099,1.099,93.333,22662.000,1.000
141550.563,135606.344,225054.188,225198.844,133243.766,159717.703,132780.906,147539.766,-0.021,1.020,-0.016,-0.671,1.129,1.068,93.333,22663.000,1.000
142145.844,135955.297,225442.656,225317.391,133668.266,160144.797,132972.406,148031.500,-0.021,1.020,-0.015,-0.671,1.221,1.099,93.333,22664.000,1.000
142734.938,136179.172,225910.172,225397.953,134181.469,160528.000,133099.813,148490.953,-0.021,1.021,-0.012,-0.610,1.404,1.038,93.333,22665.000,1.000
142031.844,135762.172,225461.781,225252.047,133683.469,160029.828,132875.047,147915.531,-0.022,1.018,-0.015,-0.641,1.404,1.007,93.333,22666.000,1.000
141532.688,135577.906,225062.406,225186.500,133241.438,159704.391,132779.563,147526.266,-0.020,1.019,-0.017,-0.641,1.495,1.038,93.333,22667.000,1.000
141997.422,135877.953,225353.063,225291.203,133559.375,160052.984,132942.453,147916.250,-0.020,1.019,-0.017,-0.519,1.678,1.068,93.333,22668.000,1.000
142738.688,136208.234,225918.563,225415.031,134187.000,160550.266,133124.406,148509.375,-0.021,1.018,-0.016,-0.641,1.801,1.007,93.333,22669.000,1.000
142206.547,135859.984,225589.281,225286.016,133825.797,160157.406,132929.313,148052.063,-0.021,1.017,-0.010,-0.702,1.892,1.068,93.333,22670.000,1.000
141547.703,135577.734,225093.344,225184.984,133283.453,159720.750,132772.594,147544.141,-0.021,1.018,-0.013,-0.702,1.892,0.977,93.333,22671.000,1.000
141863.750,135808.578,225260.172,225259.813,133459.500,159956.328,132891.141,147803.781,-0.023,1.017,-0.014,-0.732,2.045,1.038,93.333,22672.000,1.000
142678.172,136194.188,225861.703,225402.328,134122.906,160506.547,133107.141,148465.563,-0.022,1.015,-0.016,-0.549,2.197,1.007,93.333,22673.000,1.000
142373.734,135947.875,225698.891,225314.000,133941.141,160264.781,132964.641,148178.031,-0.023,1.015,-0.015,-0.519,2.136,1.068,93.333,22674.000,1.000
141581.234,135576.656,225127.500,225184.625,133320.391,159734.875,132769.281,147571.953,-0.025,1.018,-0.014,-0.458,2.197,1.038,93.333,22675.000,1.000
141741.625,135732.938,225173.813,225234.344,133363.563,159862.281,132851.266,147698.453,-0.023,1.016,-0.013,-0.549,2.106,1.129,93.333,22676.000,1.000
142577.141,136150.297,225784.188,225388.297,134035.281,160440.734,133081.578,148386.172,-0.023,1.018,-0.014,-0.519,2.167,1.129,93.333,22677.000,1.000
142506.234,136015.563,225787.766,225338.313,134034.750,160354.641,132999.688,148286.938,-0.024,1.019,-0.013,-0.488,2.167,1.129,93.333,22678.000,1.000
141642.922,135588.281,225181.234,225189.641,133376.359,159770.453,132772.938,147620.859,-0.026,1.018,-0.016,-0.397,2.289,1.068,93.333,22679.000,1.000
141648.734,135669.547,225108.547,225210.734,133288.375,159787.797,132810.578,147612.813,-0.026,1.019,-0.014,-0.366,2.197,1.099,93.333,22680.000,1.000
142447.406,136092.813,225679.313,225368.000,133916.109,160353.484,133047.328,148275.484,-0.027,1.018,-0.012,-0.244,2.289,1.129,93.333,22681.000,1.000
142628.359,136091.828,225862.422,225366.750,134116.109,160445.297,133044.469,148385.906,-0.026,1.018,-0.016,-0.305,2.350,1.160,93.333,22682.000,1.000
141750.656,135634.953,225263.656,225206.703,133464.328,159847.969,132801.375,147701.594,-0.027,1.019,-0.014,-0.183,2.289,1.251,93.333,22683.000,1.000
141574.344,135621.094,225067.859,225190.172,133241.969,159738.266,132781.969,147553.344,-0.027,1.018,-0.013,-0.244,2.167,1.190,93.333,22684.000,1.000
142289.250,136017.438,225564.422,225334.734,133787.172,160248.609,133005.938,148147.453,-0.028,1.018,-0.012,-0.305,2.136,1.038,93.333,22685.000,1.000
142704.266,136145.375,225916.781,225389.734,134175.203,160506.359,133080.328,148460.031,-0.029,1.018,-0.012,-0.244,2.106,1.160,93.333,22686.000,1.000
141892.016,135700.938,225379.359,225234.875,133590.391,159946.766,132844.297,147813.609,-0.029,1.018,-0.013,-0.305,2.045,1.099,93.333,22687.000,1.000
141550.750,135599.453,225070.000,225187.938,133245.813,159722.000,132776.797,147535.016,-0.031,1.018,-0.012,-0.214,1.923,1.068,93.333,22688.000,1.000
142139.578,135946.984,225457.859,225302.828,133666.031,160143.188,132961.234,148020.234,-0.032,1.019,-0.013,-0.183,1.831,1.007,93.333,22689.000,1.000
142744.781,136186.500,225935.281,225393.031,134190.766,160532.734,133093.734,148491.672,-0.029,1.017,-0.012,-0.214,1.678,1.007,93.333,22690.000,1.000
142040.969,135770.141,225482.984,225247.031,133693.922,160034.750,132866.734,147918.219,-0.028,1.017,-0.012,-0.183,1.740,1.160,93.333,22691.000,1.000
141517.219,135567.453,225061.688,225168.719,133231.063,159690.797,132749.969,147509.813,-0.027,1.018,-0.014,-0.214,1.740,1.221,93.333,22692.000,1.000
141981.500,135864.906,225341.453,225270.281,133534.609,160028.125,132912.063,147889.250,-0.029,1.017,-0.013,-0.183,1.556,1.221,93.333,22693.000,1.000
142734.938,136204.656,225920.359,225403.406,134175.656,160537.031,133110.906,148498.109,-0.030,1.018,-0.014,-0.153,1.373,1.282,93.333,22694.000,1.000
142214.406,135864.734,225604.297,225282.266,133829.641,160160.000,132921.359,148054.828,-0.028,1.017,-0.015,-0.183,1.373,1.495,93.333,22695.000,1.000
141533.844,135569.422,225092.266,225174.078,133271.031,159712.875,132762.031,147533.953,-0.028,1.016,-0.016,-0.183,1.282,1.587,93.333,22696.000,1.000
141851.234,135803.031,225254.984,225250.609,133440.375,159946.938,132886.141,147785.359,-0.026,1.016,-0.014,-0.061,1.129,1.526,93.333,22697.000,1.000
142667.797,136186.859,225861.797,225390.625,134112.000,160501.625,133100.078,148448.047,-0.025,1.016,-0.012,0.000,1.099,1.495,93.333,22698.000,1.000
142368.453,135940.281,225699.609,225300.141,133933.359,160259.063,132954.266,148165.516,-0.023,1.018,-0.013,-0.031,1.099,1.587,93.333,22699.000,1.000
141570.500,135569.063,225122.406,225171.750,133309.297,159725.391,132759.172,147558.625,-0.025,1.017,-0.013,0.000,1.099,1.648,93.333,22700.000,1.000
141728.656,135726.594,225164.156,225217.000,133348.188,159852.625,132839.641,147680.578,-0.023,1.018,-0.013,0.061,0.977,1.740,93.333,22701.000,1.000
142563.359,136148.594,225769.438,225371.391,134016.234,160429.656,133076.484,148368.734,-0.023,1.019,-0.016,0.000,1.007,1.709,93.333,22702.000,1.000
142508.109,136027.891,225786.969,225329.828,134032.156,160355.719,133008.891,148287.563,-0.022,1.020,-0.013,0.000,1.007,1.740,93.333,22703.000,1.000
141651.500,135605.813,225189.906,225185.516,133379.750,159780.375,132785.813,147624.875,-0.023,1.018,-0.012,-0.031,0.885,1.892,93.333,22704.000,1.000
141646.047,135678.766,225112.469,225200.906,133286.047,159794.328,132815.328,147609.047,-0.022,1.021,-0.017,-0.092,0.885,1.892,93.333,22705.000,1.000
142433.281,136090.656,225671.188,225348.328,133899.922,160343.016,133039.203,148256.453,-0.022,1.020,-0.016,-0.122,0.946,1.892,93.333,22706.000,1.000
142626.844,136098.078,225866.984,225355.750,134113.250,160446.016,133043.406,148377.859,-0.021,1.019,-0.017,-0.122,1.007,1.831,93.333,22707.000,1.000
141764.969,135653.094,225283.688,225206.438,133475.594,159861.469,132813.453,147706.063,-0.021,1.019,-0.015,-0.153,0.824,1.770,93.333,22708.000,1.000
141583.906,135639.953,225082.609,225192.406,133247.516,159749.719,132801.563,147556.844,-0.022,1.018,-0.011,-0.092,0.916,1.770,93.333,22709.000,1.000
142285.125,136027.719,225563.359,225318.828,133774.750,160245.750,133008.625,148136.281,-0.021,1.018,-0.013,-0.061,0.885,1.648,93.333,22710.000,1.000
142710.359,136157.891,225917.047,225364.516,134162.953,160505.469,133076.484,148447.328,-0.020,1.016,-0.011,-0.122,0.854,1.556,93.333,22711.000,1.000
141899.875,135709.875,225380.156,225206.266,133572.516,159941.844,132836.609,147797.875,-0.021,1.016,-0.013,-0.061,0.916,1.526,93.333,22712.000,1.000
141543.859,135600.266,225061.609,225156.375,133217.391,159707.156,132764.453,147506.594,-0.022,1.016,-0.015,-0.031,0.916,1.495,93.333,22713.000,1.000
142130.188,135944.750,225444.094,225270.813,133637.516,160129.609,132947.734,147988.578,-0.019,1.016,-0.018,0.031,0.916,1.495,93.333,22714.000,1.000
142752.641,136194.016,225934.391,225367.016,134178.516,160534.266,133087.844,148475.766,-0.019,1.016,-0.020,0.000,0.946,1.465,93.333,22715.000,1.000
142071.094,135791.688,225501.031,225232.547,133701.797,160052.000,132874.063,147919.469,-0.019,1.017,-0.018,0.153,0.885,1.404,93.333,22716.000,1.000
141532.063,135580.141,225073.859,225154.672,133234.641,159697.672,132761.500,147507.219,-0.019,1.016,-0.016,0.183,0.977,1.373,93.333,22717.000,1.000
141977.656,135862.938,225340.547,225251.422,133525.219,160023.563,132919.219,147877.266,-0.020,1.017,-0.020,0.153,1.129,1.343,93.333,22718.000,1.000
142725.641,136193.297,225904.000,225372.828,134149.641,160518.703,133101.250,148474.953,-0.020,1.019,-0.021,0.153,1.282,1.282,93.333,22719.000,1.000
142213.703,135857.313,225593.391,225248.734,133807.734,160142.563,132905.359,148036.766,-0.019,1.020,-0.019,0.153,1.251,1.129,93.333,22720.000,1.000
141535.547,135565.297,225082.797,225146.094,133251.188,159691.781,132746.656,147514.719,-0.019,1.020,-0.016,0.153,1.343,1.129,93.333,22721.000,1.000
141846.688,135799.375,225242.828,225227.000,133421.766,159925.672,132873.438,147765.422,-0.019,1.023,-0.015,0.122,1.343,1.190,93.333,22722.000,1.000
142675.297,136197.047,225862.953,225382.125,134106.813,160497.422,133105.984,148446.078,-0.018,1.023,-0.015,0.153,1.434,1.129,93.333,22723.000,1.000
142377.844,135952.875,225707.656,225291.375,133931.125,160260.047,132964.641,148170.078,-0.019,1.021,-0.016,0.153,1.556,1.068,93.333,22724.000,1.000
141583.641,135583.359,225133.938,225160.391,133306.531,159729.156,132766.422,147556.297,-0.021,1.019,-0.015,0.092,1.495,0.916,93.333,22725.000,1.000
141730.984,135732.672,225166.922,225202.953,133336.922,159847.703,132838.750,147666.188,-0.020,1.018,-0.015,0.122,1.526,0.916,93.333,22726.000,1.000
142562.656,136149.672,225767.828,225354.672,133999.703,160420.172,133072.281,148347.547,-0.021,1.018,-0.016,0.061,1.617,0.977,93.333,22727.000,1.000
142527.156,136034.516,225798.406,225316.234,134029.828,160357.953,133006.125,148277.281,-0.021,1.019,-0.016,0.000,1.617,0.916,93.333,22728.000,1.000
141660.719,135606.609,225197.328,225171.844,133376.984,159776.000,132780.547,147615.219,-0.022,1.017,-0.015,0.031,1.587,0.854,93.333,22729.000,1.000
141642.031,135673.938,225110.953,225188.734,133276.578,159780.469,132812.016,147595.281,-0.020,1.019,-0.018,0.031,1.648,0.824,93.333,22730.000,1.000
142430.234,136091.203,225670.906,225341.984,133892.594,160335.953,133048.141,148250.813,-0.021,1.019,-0.017,0.092,1.495,0.854,93.333,22731.000,1.000
142629.078,136093.344,225868.328,225337.781,134109.578,160436.000,133037.500,148374.641,-0.020,1.019,-0.018,0.031,1.465,0.854,93.333,22732.000,1.000
141760.047,135639.516,225277.797,225182.844,133464.422,159843.234,132797.000,147693.266,-0.021,1.019,-0.018,0.061,1.465,0.732,93.333,22733.000,1.000
141570.859,135625.828,225069.563,225170.406,133228.563,159727.094,132780.719,147535.297,-0.022,1.019,-0.016,0.061,1.526,0.793,93.333,22734.000,1.000
142270.203,136018.594,225549.500,225311.672,133756.594,160224.734,132997.891,148118.141,-0.023,1.019,-0.020,-0.031,1.434,0.824,93.333,22735.000,1.000
142709.641,136157.266,225913.469,225363.438,134160.000,160496.797,133074.516,148444.109,-0.024,1.019,-0.019,0.000,1.556,0.824,93.333,22736.000,1.000
141900.234,135706.828,225376.406,225202.422,133572.328,159935.500,132831.422,147795.016,-0.024,1.020,-0.017,-0.061,1.495,0.793,93.333,22737.000,1.000
141528.578,135590.516,225054.266,225153.688,133214.969,159697.766,132763.922,147504.625,-0.024,1.021,-0.021,-0.092,1.312,0.885,93.333,22738.000,1.000
142114.281,135941.703,225443.016,225279.844,133640.109,160123.797,132955.250,147991.266,-0.023,1.021,-0.017,0.000,1.251,0.854,93.333,22739.000,1.000
142700.344,136176.125,225920.531,225374.609,134174.219,160512.000,133092.938,148478.531,-0.025,1.022,-0.017,-0.031,1.190,0.793,93.333,22740.000,1.000
141984.641,135760.750,225463.125,225226.016,133680.250,160009.531,132866.281,147909.719,-0.027,1.018,-0.018,0.000,1.160,0.793,93.333,22741.000,1.000
141518.375,135580.141,225052.391,225146.625,133218.109,159683.641,132753.813,147494.078,-0.025,1.021,-0.017,-0.092,1.068,0.916,93.333,22742.000,1.000
141948.250,135854.266,225310.328,225235.406,133495.172,159997.906,132898.828,147849.734,-0.025,1.021,-0.020,-0.092,0.946,0.885,93.333,22743.000,1.000
142683.172,136177.391,225874.578,225354.047,134120.313,160491.250,133075.141,148449.750,-0.026,1.022,-0.018,-0.061,0.916,0.885,93.333,22744.000,1.000
142129.750,135828.078,225550.219,225233.078,133774.656,160099.203,132886.141,148013.438,-0.026,1.018,-0.018,-0.183,0.854,0.916,93.333,22745.000,1.000
141533.750,135575.500,225066.516,225141.438,133234.469,159688.203,132743.266,147498.984,-0.024,1.016,-0.016,-0.122,0.732,0.885,93.333,22746.000,1.000
141828.438,135788.547,225218.781,225212.875,133392.531,159911.359,132859.938,147738.156,-0.023,1.012,-0.020,-0.153,0.702,0.916,93.333,22747.000,1.000
142641.953,136171.125,225827.734,225354.500,134068.000,160470.688,133080.766,148411.922,-0.023,1.011,-0.022,-0.122,0.671,0.916,93.333,22748.000,1.000
142296.047,135909.703,225660.547,225265.719,133899.297,160222.047,132947.828,148149.063,-0.024,1.012,-0.021,-0.061,0.549,0.885,93.333,22749.000,1.000
141559.328,135560.656,225094.500,225132.859,133274.078,159706.531,132747.828,147529.750,-0.024,1.012,-0.021,0.061,0.488,0.916,93.333,22750.000,1.000
141703.984,135706.484,225127.500,225177.828,133298.125,159818.469,132816.219,147636.500,-0.024,1.013,-0.017,0.122,0.458,0.946,93.333,22751.000,1.000
142541.547,136130.000,225734.563,225338.141,133971.719,160398.094,133056.719,148327.969,-0.025,1.014,-0.021,0.092,0.519,0.824,93.333,22752.000,1.000
142455.094,136002.766,225754.500,225304.609,134007.922,160322.906,132998.609,148269.594,-0.024,1.016,-0.021,0.153,0.488,0.854,93.333,22753.000,1.000
141650.969,135607.422,225169.156,225160.391,133365.984,159769.031,132779.734,147606.375,-0.021,1.018,-0.021,0.122,0.427,0.793,93.333,22754.000,1.000
141650.516,135679.391,225091.547,225179.359,133267.719,159778.234,132810.047,147585.453,-0.021,1.017,-0.021,0.092,0.366,0.793,93.333,22755.000,1.000
142425.328,136085.297,225641.047,225322.500,133873.188,160321.734,133030.531,148226.313,-0.019,1.016,-0.022,0.061,0.336,0.885,93.333,22756.000,1.000
142579.641,136073.938,225832.016,225327.141,134090.625,160406.938,133030.266,148358.281,-0.019,1.016,-0.026,0.092,0.336,0.885,93.333,22757.000,1.000
141738.047,135634.500,225245.063,225170.406,133445.016,159821.234,132784.750,147673.422,-0.019,1.019,-0.024,0.031,0.366,0.885,93.333,22758.000,1.000
141584.984,135628.250,225050.703,225157.984,133213.000,159717.172,132766.156,147514.906,-0.016,1.023,-0.026,0.031,0.458,0.946,93.333,22759.000,1.000
142267.078,136009.391,225522.578,225291.828,133729.875,160204.438,132975.094,148089.172,-0.016,1.021,-0.020,-0.122,0.580,0.977,93.333,22760.000,1.000
142706.781,136150.203,225887.641,225345.016,134133.813,160479.188,133060.391,148423.906,-0.013,1.021,-0.019,-0.153,0.732,1.068,93.333,22761.000,1.000
141899.344,135700.125,225352.984,225186.953,133552.313,159918.516,132821.141,147782.859,-0.013,1.021,-0.022,-0.275,0.824,1.068,93.333,22762.000,1.000
141528.125,135585.156,225028.438,225142.609,133195.484,159684.000,132760.250,147491.844,-0.014,1.022,-0.022,-0.305,0.885,0.946,93.333,22763.000,1.000
142099.438,135926.859,225403.313,225262.594,133606.031,160102.516,132944.781,147967.750,-0.016,1.022,-0.024,-0.275,0.946,0.946,93.333,22764.000,1.000
142720.281,136173.359,225891.656,225352.000,134143.828,160504.938,133072.719,148456.359,-0.016,1.024,-0.019,-0.336,0.977,0.885,93.333,22765.000,1.000
142041.234,135767.094,225457.938,225208.406,133666.484,160023.828,132849.922,147898.641,-0.019,1.023,-0.019,-0.488,1.038,0.854,93.333,22766.000,1.000
141506.125,135558.063,225033.438,225130.719,133199.063,159672.563,132731.813,147477.719,-0.022,1.023,-0.017,-0.641,1.099,0.732,93.333,22767.000,1.000
141943.688,135848.016,225300.953,225231.031,133485.156,159995.672,132887.656,147840.438,-0.024,1.024,-0.020,-0.671,1.099,0.519,93.333,22768.000,1.000
142700.344,136186.234,225874.141,225359.594,134117.000,160500.828,133080.063,148450.453,-0.026,1.022,-0.021,-0.671,1.221,0.336,93.333,22769.000,1.000
142212.359,135862.672,225581.500,225248.906,133798.359,160145.609,132904.734,148036.766,-0.028,1.022,-0.015,-0.763,1.129,0.183,93.333,22770.000,1.000
141527.234,135560.391,225065.000,225138.766,133237.234,159686.953,132737.547,147504.359,-0.028,1.022,-0.014,-0.885,1.099,0.000,93.333,22771.000,1.000
141814.938,135775.141,225211.188,225210.906,133391.109,159904.297,132854.313,147739.500,-0.027,1.023,-0.015,-0.977,1.038,-0.214,93.333,22772.000,1.000
142639.719,136168.891,225824.250,225357.547,134069.609,160465.781,133073.438,148416.844,-0.028,1.023,-0.016,-1.099,0.977,-0.305,93.333,22773.000,1.000
142369.359,135941.797,225694.063,225275.734,133928.797,160249.047,132944.969,148172.766,-0.024,1.021,-0.015,-1.038,0.793,-0.397,93.333,22774.000,1.000
141571.750,135569.953,225115.250,225143.234,133299.641,159708.234,132748.891,147556.297,-0.022,1.020,-0.015,-1.160,0.916,-0.305,93.333,22775.000,1.000
141710.250,135714.969,225140.641,225186.063,133316.719,159815.344,132818.094,147654.375,-0.021,1.018,-0.020,-1.129,0.824,-0.305,93.333,22776.000,1.000
142538.875,136136.344,225742.531,225345.656,133981.547,160391.297,133063.609,148339.063,-0.023,1.016,-0.016,-1.099,0.854,-0.214,93.333,22777.000,1.000
142520.188,136032.188,225784.734,225308.359,134029.109,160345.703,133002.000,148285.406,-0.021,1.016,-0.016,-1.099,0.916,-0.122,93.333,22778.000,1.000
141660.797,135604.375,225185.609,225160.750,133381.094,159762.672,132768.563,147623.000,-0.021,1.014,-0.010,-1.068,1.007,-0.122,93.333,22779.000,1.000
141619.594,135655.344,225073.672,225162.281,133254.313,159739.344,132776.156,147578.469,-0.020,1.014,-0.010,-1.007,1.007,0.061,93.333,22780.000,1.000
142393.672,136067.406,225617.094,225314.625,133859.156,160285.344,133010.859,148226.141,-0.021,1.017,-0.013,-1.007,1.160,0.183,93.333,22781.000,1.000
142634.719,136101.922,225843.109,225332.500,134109.672,160419.813,133029.359,148391.719,-0.022,1.017,-0.010,-1.007,1.221,0.244,93.333,22782.000,1.000
141762.016,135643.172,225250.703,225171.219,133466.109,159825.891,132782.250,147715.625,-0.024,1.017,-0.010,-0.946,1.160,0.458,93.333,22783.000,1.000
141551.016,135613.578,225028.078,225150.031,133214.531,159694.375,132754.891,147540.828,-0.026,1.016,-0.012,-0.916,1.160,0.427,93.333,22784.000,1.000
142239.719,136001.078,225501.672,225289.328,133732.734,160188.516,132970.984,148115.000,-0.028,1.017,-0.012,-0.946,1.160,0.610,93.333,22785.000,1.000
142698.188,136154.141,225881.641,225347.531,134148.563,160478.563,133056.281,148462.891,-0.029,1.015,-0.013,-0.854,1.099,0.580,93.333,22786.000,1.000
141897.469,135708.797,225352.891,225194.375,133570.094,159924.859,132821.844,147825.859,-0.030,1.017,-0.011,-0.916,0.946,0.702,93.333,22787.000,1.000
141510.594,135583.813,225018.063,225142.344,133199.328,159675.859,132753.719,147520.094,-0.031,1.015,-0.010,-0.854,0.946,0.702,93.333,22788.000,1.000
142083.703,135928.031,225393.484,225260.797,133606.750,160091.344,132937.281,147990.906,-0.031,1.016,-0.012,-0.824,0.824,0.702,93.333,22789.000,1.000
142723.938,136187.391,225892.469,225355.656,134153.922,160504.672,133074.328,148487.563,-0.033,1.016,-0.009,-0.763,0.763,0.824,93.333,22790.000,1.000
142068.500,135793.016,225474.938,225219.578,133690.172,160035.016,132857.969,147939.594,-0.033,1.016,-0.008,-0.732,0.641,0.793,93.333,22791.000,1.000
141514.359,135573.969,225037.281,225139.828,133206.922,159670.141,132736.203,147507.031,-0.031,1.017,-0.010,-0.641,0.519,0.793,93.333,22792.000,1.000
141935.469,135846.844,225290.031,225230.578,133476.047,159980.203,132881.484,147851.250,-0.029,1.016,-0.012,-0.671,0.458,0.763,93.333,22793.000,1.000
142688.000,136182.125,225862.953,225355.656,134105.641,160483.203,133069.156,148458.688,-0.027,1.013,-0.013,-0.610,0.427,0.793,93.333,22794.000,1.000
142217.266,135867.047,225588.844,225244.703,133799.609,160139.344,132901.156,148056.078,-0.027,1.013,-0.014,-0.519,0.427,0.793,93.333,22795.000,1.000
141518.828,135558.063,225068.391,225132.766,133233.297,159674.875,132730.828,147517.141,-0.025,1.016,-0.013,-0.519,0.275,0.885,93.333,22796.000,1.000
141807.703,135778.719,225214.672,225205.813,133386.094,159893.125,132849.297,147748.797,-0.025,1.013,-0.013,-0.488,0.305,0.793,93.333,22797.000,1.000
142630.953,136172.906,225826.125,225350.391,134060.672,160455.844,133076.391,148423.906,-0.024,1.013,-0.013,-0.427,0.244,0.854,93.333,22798.000,1.000
142379.547,135952.438,225699.797,225271.000,133922.188,160250.922,132951.219,148185.188,-0.024,1.017,-0.012,-0.397,0.153,0.824,93.333,22799.000,1.000
141567.016,135569.594,225115.516,225136.344,133289.266,159706.625,132742.547,147561.672,-0.024,1.018,-0.012,-0.336,0.305,0.885,93.333,22800.000,1.000
141689.328,135706.391,225127.047,225175.156,133293.656,159804.969,132806.031,147647.859,-0.025,1.016,-0.015,-0.244,0.275,0.946,93.333,22801.000,1.000
142516.422,136123.563,225721.688,225330.719,133951.688,160378.328,133037.953,148326.719,-0.025,1.018,-0.013,-0.183,0.275,0.946,93.333,22802.000,1.000
142524.656,136032.453,225782.141,225301.219,134017.844,160349.906,132985.109,148293.281,-0.024,1.017,-0.015,-0.305,0.336,1.068,93.333,22803.000,1.000
141654.719,135598.563,225176.672,225150.031,133363.563,159761.781,132754.891,147624.250,-0.023,1.017,-0.015,-0.183,0.305,1.007,93.333,22804.000,1.000
141604.656,135651.313,225062.594,225153.688,133234.547,159740.234,132777.234,147576.594,-0.020,1.017,-0.016,-0.183,0.366,1.038,93.333,22805.000,1.000
142382.234,136065.094,225610.563,225302.375,133840.109,160292.406,133010.672,148222.109,-0.022,1.017,-0.016,-0.061,0.336,1.099,93.333,22806.000,1.000
142625.234,136093.344,225837.922,225310.516,134090.266,160428.578,133022.922,148382.781,-0.021,1.017,-0.014,0.061,0.458,1.190,93.333,22807.000,1.000
141761.125,135637.813,225254.188,225152.438,133456.547,159838.859,132777.766,147704.984,-0.022,1.019,-0.016,-0.061,0.488,1.190,93.333,22808.000,1.000
141539.391,135602.313,225022.078,225131.516,133196.563,159697.328,132749.781,147517.859,-0.022,1.019,-0.016,0.061,0.549,1.190,93.333,22809.000,1.000
142218.438,135984.719,225487.531,225271.266,133705.281,160186.203,132964.359,148083.000,-0.021,1.019,-0.018,0.153,0.610,1.251,93.333,22810.000,1.000
142685.594,136141.703,225872.875,225334.031,134127.734,160480.531,133053.594,148438.031,-0.020,1.020,-0.014,0.244,0.732,1.282,93.333,22811.000,1.000
141897.016,135701.828,225353.156,225180.328,133559.547,159933.359,132819.531,147804.766,-0.022,1.020,-0.019,0.214,0.793,1.221,93.333,22812.000,1.000
141512.484,135580.141,225019.313,225130.094,133188.781,159682.563,132747.109,147496.938,-0.020,1.021,-0.017,0.214,0.854,1.221,93.333,22813.000,1.000
142080.922,135921.047,225390.438,225250.969,133594.234,160094.641,132934.406,147967.578,-0.021,1.021,-0.018,0.275,0.793,1.160,93.333,22814.000,1.000
142724.031,136181.938,225896.031,225346.281,134153.828,160514.234,133078.984,148471.828,-0.022,1.021,-0.016,0.275,0.946,1.160,93.333,22815.000,1.000
142068.328,135787.563,225482.625,225206.984,133699.469,160046.813,132861.375,147929.844,-0.023,1.020,-0.016,0.275,1.038,1.007,93.333,22816.000,1.000
141504.250,135562.984,225040.500,225122.219,133213.719,159679.344,132736.563,147493.172,-0.023,1.020,-0.016,0.214,1.038,1.099,93.333,22817.000,1.000
141920.438,135835.844,225289.141,225211.984,133478.719,159987.625,132880.594,147833.641,-0.023,1.020,-0.018,0.336,1.038,0.977,93.333,22818.000,1.000
142682.906,136179.703,225868.406,225338.672,134116.547,160495.719,133070.938,148450.188,-0.026,1.022,-0.018,0.244,1.038,0.854,93.333,22819.000,1.000
142217.625,135866.422,225591.156,225228.609,133807.297,160147.938,132900.891,148049.922,-0.022,1.021,-0.019,0.244,1.068,0.824,93.333,22820.000,1.000
141518.281,135558.953,225064.281,225116.766,133228.563,159675.688,132729.844,147503.906,-0.023,1.021,-0.020,0.275,1.068,0.854,93.333,22821.000,1.000
141791.688,135766.922,225195.891,225182.578,133364.813,159878.641,132830.875,147717.672,-0.021,1.019,-0.017,0.275,1.038,0.793,93.333,22822.000,1.000
142615.141,136159.766,225804.391,225328.219,134038.328,160439.938,133051.625,148391.453,-0.022,1.015,-0.017,0.366,1.160,0.793,93.333,22823.000,1.000
142387.406,135953.953,225699.516,225257.578,133921.281,160248.969,132935.844,148173.828,-0.020,1.014,-0.021,0.366,1.312,0.885,93.333,22824.000,1.000
141583.375,135578.625,225126.328,225129.281,133302.500,159714.484,132743.078,147562.563,-0.020,1.017,-0.020,0.458,1.373,0.977,93.333,22825.000,1.000
141686.734,135702.547,225128.391,225158.156,133301.875,159803.984,132802.719,147641.234,-0.018,1.019,-0.024,0.580,1.343,1.099,93.333,22826.000,1.000
142498.641,136110.594,225714.906,225306.484,133950.797,160369.578,133033.484,148314.828,-0.017,1.020,-0.023,0.610,1.373,1.068,93.333,22827.000,1.000
142519.469,136024.047,225783.125,225273.313,134020.172,160348.297,132984.656,148287.375,-0.019,1.020,-0.023,0.671,1.434,1.221,93.333,22828.000,1.000
141647.844,135592.219,225181.141,225124.094,133367.328,159764.203,132758.375,147615.672,-0.019,1.018,-0.021,0.641,1.617,1.282,93.333,22829.000,1.000
141589.641,135646.578,225063.391,225134.016,133234.109,159742.109,132780.547,147561.125,-0.021,1.017,-0.025,0.580,1.770,1.282,93.333,22830.000,1.000
142355.406,136057.672,225602.344,225280.203,133828.125,160282.672,133010.141,148199.219,-0.022,1.018,-0.021,0.671,1.770,1.434,93.333,22831.000,1.000
142627.203,136109.875,225851.328,225305.141,134100.281,160438.234,133041.250,148385.906,-0.021,1.019,-0.021,0.763,1.831,1.404,93.333,22832.000,1.000
141764.969,135651.938,225267.234,225146.813,133463.250,159846.359,132792.797,147706.328,-0.024,1.018,-0.021,0.763,1.740,1.434,93.333,22833.000,1.000
141530.891,135605.094,225027.547,225118.375,133192.891,159694.109,132749.516,147506.328,-0.026,1.020,-0.019,0.671,1.678,1.221,93.333,22834.000,1.000
142209.219,135986.766,225495.047,225255.891,133702.594,160180.297,132961.500,148068.156,-0.028,1.019,-0.019,0.671,1.617,1.099,93.333,22835.000,1.000
142688.172,136149.672,225891.031,225320.078,134136.766,160482.219,133052.875,148432.672,-0.028,1.019,-0.019,0.580,1.556,1.038,93.333,22836.000,1.000
141907.750,135712.469,225376.313,225169.422,133573.219,159937.734,132819.250,147803.234,-0.026,1.019,-0.021,0.458,1.404,1.007,93.333,22837.000,1.000
141505.859,135581.938,225031.656,225117.219,133187.609,159676.219,132744.156,147482.094,-0.027,1.018,-0.017,0.458,1.343,0.763,93.333,22838.000,1.000
142053.125,135911.219,225386.859,225230.313,133571.078,160072.828,132920.828,147936.453,-0.028,1.019,-0.019,0.336,1.251,0.641,93.333,22839.000,1.000
142702.844,136174.609,225891.125,225327.141,134126.563,160494.734,133059.406,148448.047,-0.028,1.019,-0.020,0.366,1.251,0.580,93.333,22840.000,1.000
142060.094,135781.313,225483.875,225189.359,133678.547,160035.453,132845.719,147914.375,-0.026,1.019,-0.020,0.366,1.190,0.732,93.333,22841.000,1.000
141487.984,135549.125,225037.641,225105.234,133188.328,159659.766,132716.703,147469.484,-0.025,1.021,-0.019,0.275,1.068,0.671,93.333,22842.000,1.000
141896.656,135818.422,225279.313,225196.781,133447.250,159960.984,132855.828,147805.297,-0.026,1.021,-0.021,0.153,0.977,0.610,93.333,22843.000,1.000
142679.594,136174.703,225871.453,225334.297,134100.906,160487.500,133058.156,148439.547,-0.024,1.020,-0.022,0.031,0.916,0.732,93.333,22844.000,1.000
142231.406,135866.422,225606.453,225227.281,133806.313,160151.516,132891.313,148048.844,-0.022,1.021,-0.022,-0.092,0.885,0.702,93.333,22845.000,1.000
141515.250,135551.984,225075.016,225113.906,133232.313,159678.281,132724.844,147503.109,-0.021,1.019,-0.021,-0.061,0.946,0.732,93.333,22846.000,1.000
141775.609,135756.984,225194.016,225174.438,133359.453,159871.938,132823.734,147711.875,-0.023,1.020,-0.023,-0.214,0.916,0.916,93.333,22847.000,1.000
142602.609,136158.422,225806.813,225323.828,134038.859,160438.766,133051.984,148394.672,-0.022,1.020,-0.022,-0.214,0.763,0.854,93.333,22848.000,1.000
142393.844,135962.266,225711.406,225257.406,133932.281,160260.859,132945.594,148185.813,-0.022,1.021,-0.022,-0.336,0.732,0.916,93.333,22849.000,1.000
141565.141,135567.891,225118.281,225119.266,133294.281,159708.938,132738.438,147552.094,-0.021,1.022,-0.020,-0.336,0.671,1.007,93.333,22850.000,1.000
141658.922,135690.656,225108.281,225147.703,133281.141,159787.719,132794.938,147619.875,-0.022,1.021,-0.019,-0.305,0.763,1.007,93.333,22851.000,1.000
142483.703,136111.484,225703.547,225300.594,133939.609,160365.281,133033.031,148301.859,-0.023,1.020,-0.022,-0.336,0.671,1.068,93.333,22852.000,1.000
142512.859,136029.500,225775.344,225271.000,134018.469,160351.063,132990.922,148285.688,-0.022,1.020,-0.024,-0.519,0.641,1.038,93.333,22853.000,1.000
141652.672,135598.734,225172.281,225123.656,133367.406,159767.500,132762.031,147614.141,-0.024,1.018,-0.022,-0.641,0.641,1.038,93.333,22854.000,1.000
141588.109,135643.625,225049.797,225129.281,133227.219,159734.688,132774.375,147550.125,-0.025,1.018,-0.022,-0.732,0.519,1.068,93.333,22855.000,1.000
142344.500,136049.359,225583.031,225280.031,133812.391,160270.953,133002.453,148181.438,-0.026,1.018,-0.020,-0.824,0.488,0.977,93.333,22856.000,1.000
142620.938,136096.016,225830.766,225299.156,134082.672,160422.406,133022.031,148367.219,-0.028,1.019,-0.020,-0.793,0.397,1.038,93.333,22857.000,1.000
141762.453,135637.016,225249.094,225137.516,133446.172,159826.969,132770.984,147690.672,-0.025,1.019,-0.017,-0.885,0.427,1.068,93.333,22858.000,1.000
141532.500,135600.984,225019.313,225122.313,133185.203,159685.344,132747.828,147503.453,-0.023,1.020,-0.018,-0.946,0.397,0.946,93.333,22859.000,1.000
142205.297,135985.422,225484.406,225259.906,133691.953,160176.719,132965.969,148067.891,-0.023,1.019,-0.020,-1.007,0.397,0.854,93.333,22860.000,1.000
142686.484,136145.734,225878.969,225311.938,134127.281,160480.250,133048.234,148431.500,-0.023,1.017,-0.022,-0.946,0.366,0.763,93.333,22861.000,1.000
141905.328,135704.594,225365.141,225157.359,133565.359,159933.984,132805.672,147801.906,-0.023,1.017,-0.020,-0.916,0.336,0.702,93.333,22862.000,1.000
141498.078,135567.813,225018.156,225103.172,133182.875,159670.234,132728.859,147481.563,-0.021,1.017,-0.020,-1.038,0.214,0.702,93.333,22863.000,1.000
142032.375,135887.797,225359.859,225207.344,133554.188,160053.781,132901.063,147924.656,-0.022,1.018,-0.021,-1.038,0.366,0.671,93.333,22864.000,1.000
142700.609,136173.094,225884.688,225321.328,134129.516,160496.531,133065.656,148459.313,-0.020,1.017,-0.020,-1.007,0.336,0.671,93.333,22865.000,1.000
142075.563,135797.844,225495.406,225196.078,133700.281,160057.000,132866.469,147944.688,-0.020,1.016,-0.021,-0.916,0.397,0.610,93.333,22866.000,1.000
141491.281,135556.453,225036.125,225104.703,133197.266,159666.031,132726.281,147484.500,-0.020,1.016,-0.020,-0.977,0.305,0.549,93.333,22867.000,1.000
141890.938,135822.797,225270.094,225193.922,133447.438,159959.547,132866.641,147811.109,-0.019,1.017,-0.020,-0.946,0.244,0.549,93.333,22868.000,1.000
142668.859,136178.719,225857.766,225324.016,134098.219,160482.313,133068.797,148439.375,-0.019,1.017,-0.020,-0.916,0.336,0.610,93.333,22869.000,1.000
142224.063,135869.016,225595.000,225211.625,133812.125,160147.938,132895.156,148051.797,-0.021,1.018,-0.021,-0.885,0.427,0.580,93.333,22870.000,1.000
141509.344,135551.719,225062.047,225101.656,133234.016,159672.641,132726.906,147500.516,-0.021,1.019,-0.020,-0.854,0.610,0.519,93.333,22871.000,1.000
141762.813,135753.953,225178.375,225166.203,133353.547,159866.203,132836.250,147705.344,-0.021,1.020,-0.017,-0.854,0.671,0.549,93.333,22872.000,1.000
142586.078,136150.922,225785.625,225309.531,134024.906,160430.906,133055.922,148380.547,-0.021,1.021,-0.018,-0.946,0.549,0.549,93.333,22873.000,1.000
142379.719,135956.016,225700.953,225242.563,133932.203,160264.516,132946.750,148185.453,-0.022,1.022,-0.019,-0.916,0.610,0.427,93.333,22874.000,1.000
141557.188,135566.109,225110.328,225104.078,133291.859,159713.953,132739.063,147554.250,-0.021,1.022,-0.019,-0.854,0.641,0.366,93.333,22875.000,1.000
141658.484,135696.641,225110.516,225141.891,133287.391,159804.875,132807.281,147630.953,-0.021,1.020,-0.014,-0.916,0.763,0.427,93.333,22876.000,1.000
142465.469,136104.063,225691.656,225291.828,133932.828,160366.078,133034.109,148300.875,-0.021,1.022,-0.018,-0.946,0.671,0.458,93.333,22877.000,1.000
142439.266,136003.047,225752.359,225266.344,134010.609,160327.109,132984.656,148289.438,-0.022,1.021,-0.017,-0.977,0.641,0.397,93.333,22878.000,1.000
141628.078,135601.609,225164.250,225121.953,133363.297,159761.969,132763.109,147618.438,-0.024,1.019,-0.016,-1.038,0.732,0.458,93.333,22879.000,1.000
141586.953,135654.266,225049.438,225130.000,133223.375,159736.219,132777.766,147554.875,-0.025,1.021,-0.017,-0.916,0.854,0.458,93.333,22880.000,1.000
142343.250,136056.063,225581.328,225275.281,133806.750,160267.109,132999.234,148180.813,-0.025,1.020,-0.018,-0.885,0.793,0.458,93.333,22881.000,1.000
142567.844,136083.156,225819.688,225293.609,134076.500,160403.547,133023.109,148371.875,-0.025,1.019,-0.017,-0.854,0.702,0.488,93.333,22882.000,1.000
141733.313,135643.172,225244.891,225136.703,133449.844,159827.313,132779.031,147698.453,-0.024,1.018,-0.017,-0.977,0.641,0.519,93.333,22883.000,1.000
141526.156,135603.125,225013.500,225111.047,133183.766,159690.891,132749.078,147501.500,-0.023,1.019,-0.017,-1.007,0.671,0.549,93.333,22884.000,1.000
142188.484,135979.172,225468.047,225244.891,133680.344,160167.688,132956.313,148056.438,-0.022,1.017,-0.017,-0.946,0.702,0.549,93.333,22885.000,1.000
142646.250,136131.422,225861.266,225304.969,134117.719,160463.891,133042.063,148431.500,-0.024,1.017,-0.016,-0.916,0.763,0.549,93.333,22886.000,1.000
141864.563,135697.359,225350.391,225153.156,133564.109,159925.313,132809.688,147810.484,-0.025,1.017,-0.014,-0.977,0.732,0.488,93.333,22887.000,1.000
141502.906,135574.156,225010.641,225098.438,133176.344,159673.531,132725.734,147477.984,-0.027,1.016,-0.015,-0.916,0.854,0.580,93.333,22888.000,1.000
142039.078,135901.203,225363.984,225215.656,133556.594,160064.344,132901.063,147926.438,-0.025,1.017,-0.018,-0.854,0.732,0.763,93.333,22889.000,1.000
142674.859,136161.922,225871.188,225316.141,134121.297,160486.688,133048.859,148449.391,-0.024,1.016,-0.018,-0.732,0.763,0.763,93.333,22890.000,1.000
142009.938,135765.750,225458.391,225179.984,133674.875,160017.844,132834.813,147920.547,-0.025,1.015,-0.015,-0.671,0.702,0.702,93.333,22891.000,1.000
141503.359,135566.469,225029.594,225103.000,133190.828,159665.219,132716.531,147476.375,-0.024,1.017,-0.018,-0.641,0.732,0.732,93.333,22892.000,1.000
141896.563,135829.500,225264.109,225195.984,133444.297,159958.484,132863.328,147806.375,-0.025,1.015,-0.019,-0.671,0.610,0.763,93.333,22893.000,1.000
142692.563,136182.563,225857.500,225329.109,134100.281,160488.297,133063.609,148440.000,-0.027,1.015,-0.016,-0.641,0.671,0.854,93.333,22894.000,1.000
142269.844,135875.906,225607.250,225219.141,133821.953,160166.266,132895.156,148066.813,-0.025,1.016,-0.020,-0.580,0.702,0.977,93.333,22895.000,1.000
141521.328,135539.641,225063.219,225098.625,133235.891,159675.781,132716.703,147509.094,-0.026,1.014,-0.017,-0.488,0.610,1.007,93.333,22896.000,1.000
141758.609,135733.563,225168.625,225155.125,133347.734,159860.938,132818.813,147701.406,-0.026,1.016,-0.014,-0.519,0.702,0.977,93.333,22897.000,1.000
142586.438,136136.969,225779.719,225302.281,134025.797,160428.219,133045.094,148380.813,-0.025,1.016,-0.012,-0.427,0.763,1.068,93.333,22898.000,1.000
142396.359,135951.000,225702.563,225239.344,133940.422,160265.953,132940.844,148190.828,-0.024,1.016,-0.012,-0.336,0.732,1.129,93.333,22899.000,1.000
141577.922,135565.656,225120.344,225110.781,133309.203,159721.016,132742.094,147560.953,-0.023,1.017,-0.013,-0.275,0.793,1.251,93.333,22900.000,1.000
141664.828,135686.000,225104.781,225142.156,133286.672,159795.219,132792.250,147617.188,-0.023,1.016,-0.016,-0.336,0.702,1.282,93.333,22901.000,1.000
142481.469,136107.734,225690.766,225294.516,133934.078,160365.109,133023.109,148291.406,-0.024,1.015,-0.019,-0.275,0.793,1.190,93.333,22902.000,1.000
142534.672,136039.516,225785.266,225270.547,134035.813,160366.078,132975.813,148293.906,-0.022,1.015,-0.016,-0.244,0.793,1.251,93.333,22903.000,1.000
141655.438,135595.250,225177.109,225116.953,133375.016,159767.422,132735.484,147611.734,-0.023,1.017,-0.019,-0.214,0.824,1.343,93.333,22904.000,1.000
141575.859,135637.016,225048.016,225124.719,133226.422,159729.063,132750.859,147541.281,-0.024,1.018,-0.018,-0.122,0.854,1.373,93.333,22905.000,1.000
142335.828,136049.625,225584.016,225275.734,133817.047,160270.328,132987.344,148175.625,-0.023,1.018,-0.016,-0.092,0.793,1.312,93.333,22906.000,1.000
142633.469,136114.531,225851.063,225302.109,134111.813,160447.000,133027.313,148385.734,-0.023,1.019,-0.014,-0.122,0.732,1.343,93.333,22907.000,1.000
141784.547,135665.531,225280.297,225143.141,133491.594,159868.172,132788.500,147718.313,-0.022,1.016,-0.017,-0.153,0.732,1.282,93.333,22908.000,1.000
141519.188,135605.625,225023.875,225111.313,133206.484,159700.359,132746.563,147502.125,-0.021,1.017,-0.016,-0.183,0.702,1.190,93.333,22909.000,1.000
142175.516,135977.203,225473.234,225244.703,133695.719,160175.109,132954.000,148047.406,-0.024,1.018,-0.019,-0.183,0.793,1.068,93.333,22910.000,1.000
142684.953,136156.641,225887.188,225311.141,134152.141,160501.891,133054.219,148437.766,-0.022,1.019,-0.019,-0.122,0.763,1.190,93.333,22911.000,1.000
141916.063,135719.438,225381.047,225153.688,133600.313,159961.875,132817.469,147818.000,-0.023,1.019,-0.016,-0.122,0.793,1.190,93.333,22912.000,1.000
141481.281,135567.000,225013.234,225090.484,133194.047,159671.031,132723.406,147472.172,-0.023,1.021,-0.014,-0.092,0.977,1.190,93.333,22913.000,1.000
142012.172,135891.453,225353.781,225203.672,133563.922,160055.750,132899.719,147912.672,-0.023,1.021,-0.017,-0.092,0.916,1.099,93.333,22914.000,1.000
142688.000,136172.281,225876.453,225310.516,134143.641,160497.516,133058.875,148450.813,-0.022,1.020,-0.017,-0.092,0.977,1.068,93.333,22915.000,1.000
142066.266,135786.234,225479.141,225169.078,133708.406,160044.578,132843.672,147929.578,-0.021,1.018,-0.017,-0.092,1.007,1.160,93.333,22916.000,1.000
141469.109,135541.250,225014.844,225065.000,133202.281,159650.656,132711.969,147469.484,-0.021,1.021,-0.014,-0.183,0.916,1.251,93.333,22917.000,1.000
141863.313,135810.016,225242.563,225144.297,133445.281,159943.188,132857.531,147793.406,-0.021,1.020,-0.016,-0.244,0.977,1.251,93.333,22918.000,1.000
142657.516,136175.063,225838.281,225279.938,134104.484,160478.922,133064.766,148435.078,-0.021,1.018,-0.017,-0.244,1.038,1.251,93.333,22919.000,1.000
142241.047,135879.656,225597.594,225177.109,133841.359,160166.625,132898.563,148069.141,-0.021,1.020,-0.015,-0.153,1.038,1.038,93.333,22920.000,1.000
141508.984,135552.422,225055.797,225061.516,133249.031,159678.906,132721.531,147500.063,-0.020,1.019,-0.018,-0.061,1.099,1.068,93.333,22921.000,1.000
141747.266,135743.578,225159.859,225121.328,133354.625,159862.641,132819.969,147685.500,-0.021,1.017,-0.016,-0.153,1.099,1.068,93.333,22922.000,1.000
142587.063,136147.703,225776.328,225272.156,134036.359,160439.125,133045.016,148370.172,-0.021,1.020,-0.017,-0.244,1.221,1.099,93.333,22923.000,1.000
142401.453,135956.375,225700.688,225206.438,133951.859,160279.266,132940.938,148185.281,-0.023,1.018,-0.019,-0.122,1.251,1.099,93.333,22924.000,1.000
141560.750,135551.625,225099.328,225064.203,133299.016,159711.625,132726.094,147538.156,-0.021,1.018,-0.016,-0.122,1.343,1.068,93.333,22925.000,1.000
141639.078,135667.047,225079.938,225097.453,133268.969,159778.594,132776.875,147590.000,-0.021,1.019,-0.017,-0.122,1.312,1.007,93.333,22926.000,1.000
142456.797,136089.141,225666.172,225253.203,133915.922,160346.766,133009.875,148266.188,-0.021,1.020,-0.021,-0.061,1.343,1.038,93.333,22927.000,1.000
142531.625,136038.797,225781.953,225243.547,134041.000,160369.391,132987.078,148297.313,-0.021,1.019,-0.015,-0.031,1.343,1.099,93.333,22928.000,1.000
141667.688,135602.500,225186.063,225095.406,133392.172,159784.047,132759.891,147624.422,-0.022,1.018,-0.017,-0.092,1.160,1.129,93.333,22929.000,1.000
141574.703,135630.484,225041.047,225093.078,133222.578,159727.000,132762.750,147535.469,-0.023,1.019,-0.017,-0.092,1.282,1.129,93.333,22930.000,1.000
142325.453,136035.234,225569.703,225241.125,133801.219,160257.188,132985.641,148158.906,-0.024,1.020,-0.016,-0.122,1.312,1.068,93.333,22931.000,1.000
142640.172,136106.313,225849.641,225271.703,134108.234,160442.438,133023.641,148383.047,-0.025,1.018,-0.021,-0.061,1.312,1.068,93.333,22932.000,1.000
141786.953,135652.656,225277.344,225113.906,133487.391,159858.609,132782.250,147712.938,-0.024,1.018,-0.019,0.000,1.312,1.038,93.333,22933.000,1.000
141520.172,135595.703,225018.234,225085.922,133196.641,159687.672,132747.281,147495.141,-0.024,1.018,-0.018,0.000,1.343,1.129,93.333,22934.000,1.000
142172.391,135967.188,225458.922,225215.656,133678.813,160151.516,132944.703,148033.906,-0.024,1.019,-0.018,0.000,1.282,1.038,93.333,22935.000,1.000
142693.906,136154.500,225879.938,225286.281,134142.563,160480.891,133043.484,148431.953,-0.025,1.018,-0.019,0.031,1.221,1.007,93.333,22936.000,1.000
141921.875,135713.359,225376.047,225132.953,133593.516,159942.750,132807.281,147816.469,-0.025,1.017,-0.020,0.061,1.251,1.007,93.333,22937.000,1.000
141474.125,135557.250,225001.078,225071.969,133183.859,159651.813,132719.656,147469.484,-0.024,1.019,-0.017,0.000,1.160,1.007,93.333,22938.000,1.000
141998.313,135880.375,225335.453,225181.141,133546.406,160034.391,132895.797,147905.250,-0.024,1.020,-0.021,-0.092,1.190,0.977,93.333,22939.000,1.000
142682.813,136166.391,225864.828,225286.813,134130.234,160484.641,133056.000,148447.953,-0.026,1.021,-0.017,-0.153,1.190,0.824,93.333,22940.000,1.000
142075.828,135793.828,225483.328,225154.500,133708.953,160048.875,132854.125,147942.266,-0.026,1.020,-0.016,-0.214,1.099,0.916,93.333,22941.000,1.000
141465.719,135541.703,225009.844,225057.578,133189.672,159643.672,132709.109,147468.234,-0.025,1.020,-0.019,-0.214,1.007,0.854,93.333,22942.000,1.000
141842.203,135795.438,225219.406,225137.688,133416.141,159919.859,132835.797,147771.141,-0.025,1.021,-0.018,-0.336,1.068,0.854,93.333,22943.000,1.000
142639.188,136164.328,225820.406,225280.109,134084.094,160461.656,133042.953,148419.250,-0.027,1.019,-0.014,-0.336,1.129,0.854,93.333,22944.000,1.000
142250.172,135887.891,225600.016,225190.172,133840.375,160168.672,132893.109,148070.563,-0.027,1.019,-0.013,-0.366,1.007,0.732,93.333,22945.000,1.000
141504.438,135553.500,225052.938,225074.391,133245.281,159673.813,132719.031,147498.719,-0.027,1.019,-0.018,-0.397,0.854,0.641,93.333,22946.000,1.000
141726.078,135739.109,225143.141,225129.734,133338.094,159843.234,132811.484,147672.438,-0.025,1.019,-0.018,-0.397,0.763,0.702,93.333,22947.000,1.000
142546.109,136138.313,225744.844,225274.484,134003.453,160404.797,133032.500,148348.797,-0.024,1.020,-0.019,-0.488,0.702,0.732,93.333,22948.000,1.000
142375.078,135958.516,225679.672,225209.031,133928.625,160255.125,132933.250,148176.516,-0.024,1.019,-0.019,-0.519,0.641,0.702,93.333,22949.000,1.000
141527.500,135547.156,225074.484,225062.047,133275.500,159685.438,132714.109,147528.859,-0.025,1.020,-0.017,-0.519,0.610,0.671,93.333,22950.000,1.000
141596.703,135656.953,225044.438,225085.922,133238.844,159745.953,132761.047,147574.188,-0.026,1.021,-0.019,-0.549,0.580,0.732,93.333,22951.000,1.000
142411.547,136072.859,225629.609,225237.563,133888.203,160313.875,132992.078,148250.094,-0.023,1.021,-0.020,-0.549,0.549,0.732,93.333,22952.000,1.000
142492.203,136016.891,225738.406,225218.328,134007.563,160330.234,132955.422,148274.781,-0.024,1.023,-0.020,-0.549,0.488,0.916,93.333,22953.000,1.000
141625.750,135581.313,225139.484,225071.172,133354.172,159739.969,132722.516,147601.188,-0.022,1.022,-0.024,-0.610,0.458,1.068,93.333,22954.000,1.000
141535.188,135618.234,225002.063,225079.750,133192.625,159692.406,132738.703,147521.438,-0.023,1.022,-0.020,-0.641,0.458,1.099,93.333,22955.000,1.000
142282.188,136023.156,225525.984,225226.469,133767.063,160221.156,132967.672,148143.609,-0.023,1.022,-0.018,-0.610,0.458,1.099,93.333,22956.000,1.000
142608.344,136098.438,225812.359,225258.484,134078.203,160407.656,133006.563,148371.953,-0.025,1.020,-0.016,-0.519,0.427,1.129,93.333,22957.000,1.000
141764.875,135647.563,225246.938,225106.313,133459.953,159826.875,132768.391,147704.984,-0.024,1.019,-0.019,-0.580,0.336,1.129,93.333,22958.000,1.000
141476.266,135575.672,224972.828,225070.813,133158.281,159641.438,132723.063,147471.547,-0.023,1.018,-0.018,-0.580,0.275,1.160,93.333,22959.000,1.000
142118.656,135939.203,225405.641,225197.063,133631.438,160100.719,132922.797,148007.094,-0.021,1.015,-0.019,-0.580,0.275,1.190,93.333,22960.000,1.000
142648.922,136126.781,225832.297,225267.063,134100.109,160435.375,133023.547,148415.953,-0.022,1.013,-0.023,-0.458,0.305,1.190,93.333,22961.000,1.000
141890.578,135693.609,225336.797,225114.438,133558.922,159905.109,132789.219,147806.734,-0.023,1.013,-0.019,-0.458,0.244,1.129,93.333,22962.000,1.000
141436.844,135529.625,224954.766,225046.578,133136.469,159604.250,132691.500,147445.438,-0.021,1.015,-0.018,-0.397,0.244,1.129,93.333,22963.000,1.000
141966.391,135858.563,225297.094,225165.938,133505.906,159992.453,132876.031,147884.875,-0.020,1.017,-0.019,-0.366,0.336,1.190,93.333,22964.000,1.000
142662.156,136154.766,225838.375,225279.313,134101.266,160453.609,133042.422,148439.188,-0.020,1.020,-0.017,-0.366,0.305,1.129,93.333,22965.000,1.000
142059.016,135779.609,225460.531,225146.891,133686.500,160019.641,132832.578,147934.047,-0.021,1.019,-0.019,-0.488,0.305,1.099,93.333,22966.000,1.000
141454.188,135535.266,224989.359,225060.984,133171.516,159619.266,132698.297,147460.359,-0.020,1.019,-0.019,-0.397,0.488,1.068,93.333,22967.000,1.000
141829.781,135794.547,225199.469,225146.188,133395.484,159895.266,132834.281,147760.688,-0.018,1.017,-0.018,-0.488,0.427,1.099,93.333,22968.000,1.000
142627.469,136160.219,225797.516,225284.672,134056.297,160431.625,133042.422,148407.094,-0.019,1.014,-0.019,-0.488,0.397,1.007,93.333,22969.000,1.000
142236.766,135882.438,225572.828,225185.609,133808.453,160136.047,132881.656,148058.234,-0.017,1.017,-0.020,-0.427,0.549,1.068,93.333,22970.000,1.000
141489.766,135547.156,225024.234,225066.516,133211.391,159639.828,132702.766,147484.234,-0.017,1.018,-0.021,-0.305,0.732,1.038,93.333,22971.000,1.000
141709.891,135731.250,225114.078,225121.422,133301.609,159811.047,132799.500,147660.547,-0.018,1.021,-0.021,-0.397,0.793,1.190,93.333,22972.000,1.000
142538.594,136134.469,225724.734,225269.469,133975.469,160383.438,133023.641,148344.156,-0.015,1.024,-0.021,-0.458,0.885,1.190,93.333,22973.000,1.000
142390.719,135965.578,225674.938,225211.453,133918.344,160248.422,132927.000,148183.406,-0.014,1.023,-0.021,-0.519,0.885,1.129,93.333,22974.000,1.000
141550.297,135560.469,225081.547,225074.297,133273.438,159684.172,132714.203,147539.578,-0.013,1.022,-0.022,-0.549,0.977,0.977,93.333,22975.000,1.000
141603.313,135663.469,225046.141,225101.031,133229.016,159736.031,132760.156,147574.000,-0.012,1.022,-0.022,-0.580,1.160,0.977,93.333,22976.000,1.000
142413.875,136079.844,225625.141,225251.766,133870.500,160302.609,132991.906,148244.016,-0.013,1.023,-0.023,-0.671,1.068,1.068,93.333,22977.000,1.000
142508.203,136033.625,225746.016,225234.156,134002.109,160332.297,132962.844,148282.188,-0.016,1.020,-0.020,-0.763,1.312,1.129,93.333,22978.000,1.000
141633.266,135593.563,225146.984,225083.234,133348.641,159741.578,132731.547,147607.000,-0.018,1.019,-0.019,-0.732,1.343,1.068,93.333,22979.000,1.000
141529.547,135621.359,225002.953,225089.859,133180.906,159685.875,132739.781,147516.953,-0.021,1.020,-0.017,-0.671,1.495,0.946,93.333,22980.000,1.000
142277.000,136025.219,225530.281,225237.734,133758.297,160218.109,132967.672,148140.750,-0.024,1.020,-0.018,-0.641,1.465,0.763,93.333,22981.000,1.000
142609.406,136101.656,225820.484,225264.016,134077.578,160414.547,133008.172,148378.313,-0.028,1.021,-0.018,-0.702,1.434,0.549,93.333,22982.000,1.000
141761.828,135645.047,225249.359,225100.500,133458.516,159830.000,132758.109,147706.063,-0.027,1.020,-0.021,-0.702,1.404,0.275,93.333,22983.000,1.000
141470.641,135571.656,224971.578,225065.094,133151.578,159642.781,132712.688,147473.063,-0.028,1.020,-0.020,-0.702,1.312,0.061,93.333,22984.000,1.000
142109.719,135938.313,225402.422,225196.156,133621.422,160102.875,132917.688,148007.359,-0.027,1.021,-0.020,-0.793,1.404,-0.061,93.333,22985.000,1.000
142650.359,136135.906,225836.844,225267.063,134098.844,160448.078,133020.688,148423.094,-0.027,1.020,-0.017,-0.763,1.251,-0.092,93.333,22986.000,1.000
141907.031,135710.328,225359.953,225121.500,133575.281,159931.563,132790.375,147829.438,-0.027,1.018,-0.015,-0.824,1.160,-0.244,93.333,22987.000,1.000
141437.906,135539.281,224969.516,225054.188,133142.828,159620.875,132693.109,147461.078,-0.026,1.019,-0.016,-0.793,1.007,-0.275,93.333,22988.000,1.000
141948.875,135855.875,225290.484,225162.641,133487.656,159990.844,132863.063,147879.688,-0.024,1.020,-0.013,-0.885,0.946,-0.214,93.333,22989.000,1.000
142648.297,136150.922,225828.359,225271.438,134081.859,160448.078,133021.859,148433.297,-0.024,1.021,-0.017,-0.824,0.977,-0.183,93.333,22990.000,1.000
142061.797,135787.297,225461.344,225147.609,133682.125,160025.266,132825.344,147943.344,-0.025,1.020,-0.014,-0.854,0.824,-0.122,93.333,22991.000,1.000
141433.625,135523.188,224973.266,225053.109,133153.453,159608.359,132675.844,147459.203,-0.024,1.020,-0.014,-0.824,0.824,-0.061,93.333,22992.000,1.000
141794.734,135768.703,225173.625,225130.000,133370.188,159876.766,132802.891,147753.625,-0.027,1.020,-0.014,-0.824,0.793,0.092,93.333,22993.000,1.000
142598.234,136139.563,225774.891,225264.828,134036.531,160418.297,133013.266,148405.219,-0.024,1.018,-0.014,-0.854,0.946,0.122,93.333,22994.000,1.000
142221.391,135866.250,225563.172,225170.594,133804.438,160132.641,132870.125,148072.453,-0.023,1.018,-0.014,-0.946,0.885,0.214,93.333,22995.000,1.000
141472.781,135533.563,225013.594,225055.969,133207.188,159634.281,132694.797,147498.906,-0.024,1.018,-0.014,-0.885,0.763,0.366,93.333,22996.000,1.000
141683.250,135715.156,225095.406,225110.688,133287.297,159794.781,132786.438,147665.203,-0.025,1.017,-0.013,-0.885,0.885,0.488,93.333,22997.000,1.000
142510.609,136120.438,225705.781,225262.594,133957.047,160365.453,133013.359,148349.344,-0.024,1.017,-0.014,-0.885,0.824,0.519,93.333,22998.000,1.000
142367.203,135951.094,225662.422,225201.531,133905.109,160230.984,132914.469,148193.500,-0.026,1.018,-0.009,-0.885,0.824,0.793,93.333,22999.000,1.000
141530.000,135544.469,225064.547,225060.984,133259.141,159662.906,132695.422,147541.906,-0.027,1.018,-0.010,-0.946,0.702,0.916,93.333,23000.000,1.000
141590.172,135654.891,225030.047,225091.547,133214.250,159718.875,132745.859,147575.250,-0.026,1.017,-0.011,-0.885,0.580,0.977,93.333,23001.000,1.000
142404.219,136076.438,225617.531,225247.563,133858.703,160292.328,132985.375,148247.328,-0.027,1.016,-0.016,-0.916,0.427,1.038,93.333,23002.000,1.000
142512.406,136035.672,225755.484,225237.906,134007.922,160337.922,132964.000,148300.609,-0.029,1.015,-0.012,-0.854,0.336,1.068,93.333,23003.000,1.000
141639.703,135593.375,225158.078,225086.641,133357.578,159751.047,132729.500,147624.781,-0.029,1.015,-0.013,-0.763,0.305,1.129,93.333,23004.000,1.000
141514.531,135606.156,224990.797,225077.516,133166.969,159678.719,132726.719,147514.281,-0.028,1.014,-0.010,-0.732,0.214,1.007,93.333,23005.000,1.000
142247.578,136003.047,225498.094,225214.750,133722.625,160199.969,132947.375,148121.984,-0.028,1.014,-0.009,-0.641,0.153,1.007,93.333,23006.000,1.000
142593.234,136088.875,225802.609,225244.438,134053.609,160406.313,132986.000,148371.609,-0.027,1.012,-0.011,-0.580,0.092,0.946,93.333,23007.000,1.000
141752.172,135634.141,225238.453,225084.844,133437.594,159826.609,132739.328,147704.266,-0.028,1.013,-0.012,-0.397,0.031,0.977,93.333,23008.000,1.000
141460.359,135559.578,224960.313,225049.984,133126.375,159639.656,132693.188,147464.031,-0.027,1.011,-0.012,-0.305,-0.031,0.946,93.333,23009.000,1.000
142094.875,135926.859,225387.672,225179.891,133589.766,160095.625,132897.750,147992.063,-0.026,1.013,-0.011,-0.244,-0.092,0.916,93.333,23010.000,1.000
142644.547,136131.422,225832.297,225259.641,134078.375,160449.063,133014.344,148422.391,-0.026,1.014,-0.011,-0.153,-0.122,0.916,93.333,23011.000,1.000
141896.563,135700.047,225344.844,225107.203,133545.328,159922.531,132775.531,147817.719,-0.025,1.014,-0.013,-0.092,-0.153,0.793,93.333,23012.000,1.000
141428.344,135531.859,224956.281,225042.828,133121.984,159617.219,132678.703,147449.281,-0.025,1.015,-0.013,-0.183,-0.153,0.793,93.333,23013.000,1.000
141931.266,135845.859,225273.234,225149.406,133465.938,159982.703,132848.500,147864.391,-0.024,1.016,-0.013,-0.122,-0.061,0.793,93.333,23014.000,1.000
142623.453,136144.750,225820.219,225267.500,134068.813,160447.891,133024.359,148433.297,-0.021,1.016,-0.015,-0.031,-0.122,0.824,93.333,23015.000,1.000
141991.516,135759.234,225431.922,225131.781,133654.141,160005.328,132816.031,147933.688,-0.019,1.016,-0.014,0.031,-0.061,0.885,93.333,23016.000,1.000
141438.813,135526.953,224965.219,225038.359,133133.969,159619.984,132676.828,147449.188,-0.018,1.016,-0.016,0.153,0.000,1.038,93.333,23017.000,1.000
141801.625,135772.813,225166.656,225120.609,133346.766,159884.891,132809.875,147743.250,-0.019,1.017,-0.015,0.092,0.092,1.068,93.333,23018.000,1.000
142603.156,136144.844,225776.141,225259.734,134020.266,160431.703,133023.109,148403.609,-0.018,1.017,-0.016,0.214,0.153,1.038,93.333,23019.000,1.000
142166.406,135848.984,225547.891,225161.109,133779.938,160125.313,132873.891,148070.656,-0.017,1.019,-0.016,0.214,0.214,1.068,93.333,23020.000,1.000
141474.750,135534.094,225003.219,225037.641,133177.328,159645.109,132688.984,147479.766,-0.018,1.019,-0.015,0.153,0.305,1.251,93.333,23021.000,1.000
141681.281,135709.969,225081.813,225093.078,133255.828,159799.781,132774.734,147636.313,-0.017,1.019,-0.013,0.122,0.458,1.221,93.333,23022.000,1.000
142513.656,136118.828,225692.906,225244.438,133932.469,160371.266,133003.891,148320.016,-0.018,1.019,-0.014,0.183,0.488,1.221,93.333,23023.000,1.000
142318.922,135934.828,225636.047,225189.281,133881.406,160221.422,132910.813,148174.281,-0.018,1.019,-0.016,0.092,0.671,1.190,93.333,23024.000,1.000
141540.016,135560.297,225055.250,225055.609,133241.797,159683.281,132701.781,147529.031,-0.018,1.021,-0.017,0.244,0.793,1.099,93.333,23025.000,1.000
141603.047,135665.625,225026.469,225086.453,133196.828,159740.063,132749.609,147562.563,-0.018,1.021,-0.016,0.183,0.885,1.190,93.333,23026.000,1.000
142408.250,136078.672,225606.719,225238.359,133840.906,160307.875,132987.609,148232.391,-0.019,1.021,-0.015,0.244,0.885,1.129,93.333,23027.000,1.000
142458.313,136012.703,225724.203,225219.500,133981.375,160323.078,132955.328,148282.906,-0.022,1.020,-0.016,0.122,0.885,1.160,93.333,23028.000,1.000
141611.547,135578.266,225117.656,225057.125,133317.250,159733.172,132705.078,147590.000,-0.022,1.019,-0.013,0.122,1.007,1.099,93.333,23029.000,1.000
141518.375,135603.219,224967.281,225056.422,133138.000,159673.984,132706.516,147486.734,-0.022,1.018,-0.013,0.092,0.946,0.946,93.333,23030.000,1.000
142256.969,136010.453,225488.438,225206.172,133708.594,160203.984,132941.484,148109.281,-0.022,1.018,-0.016,0.183,1.099,0.793,93.333,23031.000,1.000
142624.875,136112.203,225810.563,225248.828,134059.875,160431.359,133007.016,148383.313,-0.024,1.018,-0.019,0.153,1.007,0.793,93.333,23032.000,1.000
141778.547,135655.609,225247.297,225086.719,133447.516,159854.234,132762.391,147718.313,-0.025,1.019,-0.016,0.153,1.160,0.793,93.333,23033.000,1.000
141468.313,135571.297,224963.438,225045.688,133134.328,159657.094,132701.953,147467.344,-0.025,1.020,-0.018,0.183,1.221,0.763,93.333,23034.000,1.000
142085.313,135924.625,225379.172,225168.531,133588.063,160097.688,132889.000,147980.719,-0.026,1.021,-0.018,0.153,1.160,0.641,93.333,23035.000,1.000
142645.891,136134.641,225827.641,225245.328,134080.969,160454.063,133004.422,148414.875,-0.026,1.020,-0.019,0.122,1.099,0.549,93.333,23036.000,1.000
141911.141,135709.781,225347.266,225090.391,133555.344,159933.719,132776.078,147815.484,-0.025,1.019,-0.021,0.153,1.099,0.519,93.333,23037.000,1.000
141429.234,135533.750,224950.563,225022.000,133118.234,159616.594,132680.141,147438.641,-0.021,1.015,-0.020,0.214,0.977,0.580,93.333,23038.000,1.000
141924.734,135844.797,225260.719,225132.063,133453.250,159977.609,132851.531,147850.453,-0.021,1.015,-0.021,0.397,1.068,0.641,93.333,23039.000,1.000
142644.453,136154.500,225808.781,225249.094,134058.797,160452.547,133022.297,148422.828,-0.017,1.017,-0.021,0.488,1.099,0.671,93.333,23040.000,1.000
142078.953,135795.609,225455.531,225122.125,133672.109,160040.109,132819.344,147941.641,-0.018,1.020,-0.021,0.427,1.251,0.824,93.333,23041.000,1.000
141443.719,135531.688,224968.438,225031.031,133143.172,159624.547,132682.109,147454.734,-0.019,1.021,-0.021,0.549,1.221,0.885,93.333,23042.000,1.000
141789.734,135773.719,225155.125,225106.391,133343.188,159881.672,132808.531,147737.078,-0.020,1.020,-0.021,0.519,1.373,0.977,93.333,23043.000,1.000
142599.391,136149.313,225760.406,225245.781,134012.938,160431.266,133021.859,148397.344,-0.021,1.018,-0.023,0.580,1.373,1.068,93.333,23044.000,1.000
142240.875,135881.531,225560.938,225150.203,133796.031,160159.906,132875.859,148077.906,-0.021,1.017,-0.024,0.580,1.343,1.129,93.333,23045.000,1.000
141464.016,135526.047,224992.047,225021.453,133180.109,159641.891,132685.234,147479.313,-0.021,1.016,-0.024,0.610,1.404,1.129,93.333,23046.000,1.000
141665.547,135702.625,225063.391,225076.797,133250.203,159790.297,132771.250,147630.500,-0.023,1.015,-0.021,0.732,1.556,1.190,93.333,23047.000,1.000
142503.203,136113.016,225676.547,225230.844,133925.766,160363.938,132997.531,148315.813,-0.026,1.016,-0.023,0.854,1.465,1.190,93.333,23048.000,1.000
142390.188,135962.891,225655.984,225181.234,133899.656,160253.969,132913.938,148186.531,-0.026,1.016,-0.026,0.916,1.495,1.099,93.333,23049.000,1.000
141541.438,135554.313,225061.422,225042.016,133251.984,159687.219,132695.250,147532.875,-0.026,1.019,-0.023,0.793,1.404,0.977,93.333,23050.000,1.000
141573.359,135644.344,225008.406,225060.172,133181.000,159719.219,132730.203,147542.172,-0.027,1.020,-0.024,0.793,1.282,0.977,93.333,23051.000,1.000
142375.609,136055.250,225585.531,225209.219,133815.156,160280.078,132961.500,148205.391,-0.029,1.019,-0.023,0.702,1.190,0.854,93.333,23052.000,1.000
142516.875,136035.938,225750.031,225206.266,133991.109,160348.734,132953.641,148286.219,-0.030,1.021,-0.024,0.671,1.068,0.793,93.333,23053.000,1.000
141640.594,135589.172,225152.984,225049.797,133340.672,159760.078,132719.844,147607.266,-0.029,1.020,-0.027,0.610,0.824,0.702,93.333,23054.000,1.000
141495.047,135592.750,224976.844,225039.516,133142.906,159678.641,132714.828,147485.938,-0.028,1.021,-0.025,0.549,0.763,0.610,93.333,23055.000,1.000
142215.750,135984.625,225481.547,225176.672,133694.109,160187.266,132921.813,148086.656,-0.028,1.020,-0.025,0.519,0.610,0.580,93.333,23056.000,1.000
142594.484,136093.250,225810.656,225221.188,134048.781,160416.516,132980.188,148362.125,-0.027,1.018,-0.022,0.458,0.519,0.580,93.333,23057.000,1.000
141760.844,135643.266,225257.500,225068.750,133443.594,159845.203,132743.438,147703.734,-0.025,1.021,-0.024,0.427,0.427,0.610,93.333,23058.000,1.000
141443.719,135555.203,224965.578,225030.219,133118.406,159638.313,132682.016,147448.125,-0.023,1.022,-0.027,0.305,0.519,0.549,93.333,23059.000,1.000
142063.406,135916.219,225377.750,225157.719,133572.328,160084.625,132878.359,147965.250,-0.022,1.022,-0.028,0.092,0.458,0.549,93.333,23060.000,1.000
142624.969,136126.328,225823.703,225234.344,134070.063,160444.141,132995.922,148406.297,-0.023,1.022,-0.028,-0.031,0.366,0.641,93.333,23061.000,1.000
141897.203,135707.547,225351.109,225087.172,133556.953,159933.984,132771.063,147816.469,-0.022,1.022,-0.025,-0.214,0.244,0.671,93.333,23062.000,1.000
141417.969,135531.859,224952.438,225018.422,133117.781,159615.688,132672.625,147431.578,-0.019,1.021,-0.028,-0.305,0.305,0.763,93.333,23063.000,1.000
141908.734,135838.359,225254.281,225121.859,133446.172,159969.125,132839.469,147833.375,-0.020,1.022,-0.025,-0.397,0.275,0.916,93.333,23064.000,1.000
142635.969,136155.750,225813.516,225242.922,134064.344,160453.078,133018.281,148414.609,-0.020,1.021,-0.023,-0.427,0.397,0.885,93.333,23065.000,1.000
142079.672,135806.250,225471.094,225124.188,133688.031,160051.906,132828.563,147946.563,-0.022,1.023,-0.024,-0.519,0.366,0.916,93.333,23066.000,1.000
141435.234,135536.156,224972.203,225024.406,133143.719,159622.125,132679.688,147443.375,-0.021,1.021,-0.023,-0.610,0.305,1.038,93.333,23067.000,1.000
141771.484,135767.719,225146.719,225097.094,133331.203,159865.141,132793.859,147713.922,-0.021,1.022,-0.024,-0.671,0.366,1.099,93.333,23068.000,1.000
142576.688,136140.734,225747.094,225233.984,133998.984,160409.266,133004.156,148373.125,-0.022,1.022,-0.021,-0.854,0.427,1.190,93.333,23069.000,1.000
142233.547,135883.328,225557.641,225140.734,133791.375,160148.297,132861.719,148062.438,-0.023,1.021,-0.021,-0.824,0.336,1.160,93.333,23070.000,1.000
141459.375,135526.594,224989.453,225013.406,133176.172,159629.906,132667.359,147463.938,-0.021,1.019,-0.024,-0.946,0.488,1.068,93.333,23071.000,1.000
141654.094,135700.938,225058.031,225068.844,133241.891,159778.859,132752.922,147611.828,-0.021,1.019,-0.022,-1.099,0.427,1.038,93.333,23072.000,1.000
142496.766,136121.594,225683.422,225233.891,133932.547,160365.906,132994.234,148309.281,-0.021,1.019,-0.020,-1.221,0.275,1.068,93.333,23073.000,1.000
142392.328,135970.672,225662.859,225178.547,133908.328,160255.578,132898.922,148181.344,-0.023,1.019,-0.021,-1.190,0.427,0.885,93.333,23074.000,1.000
141533.672,135553.141,225059.813,225032.094,133253.422,159681.141,132674.328,147522.063,-0.022,1.021,-0.021,-1.312,0.458,0.854,93.333,23075.000,1.000
141555.656,135635.406,224999.828,225046.938,133179.125,159709.297,132710.453,147528.500,-0.023,1.019,-0.018,-1.282,0.427,0.854,93.333,23076.000,1.000
142362.922,136052.844,225578.828,225199.563,133817.578,160274.797,132946.391,148197.891,-0.022,1.017,-0.021,-1.404,0.427,0.702,93.333,23077.000,1.000
142514.281,136038.719,225746.281,225199.734,134003.453,160351.063,132938.531,148286.938,-0.021,1.020,-0.023,-1.343,0.366,0.671,93.333,23078.000,1.000
141635.953,135591.859,225147.250,225046.219,133352.219,159759.641,132704.453,147605.734,-0.021,1.019,-0.019,-1.312,0.366,0.641,93.333,23079.000,1.000
141493.969,135599.641,224973.094,225042.109,133151.047,159672.734,132700.172,147481.906,-0.021,1.018,-0.018,-1.373,0.397,0.549,93.333,23080.000,1.000
142219.953,135997.594,225477.797,225182.750,133703.047,160182.797,132916.359,148083.266,-0.020,1.019,-0.019,-1.434,0.366,0.580,93.333,23081.000,1.000
142604.859,136104.609,225805.469,225222.719,134062.016,160412.313,132972.859,148362.297,-0.019,1.017,-0.023,-1.434,0.336,0.488,93.333,23082.000,1.000
141769.516,135651.219,225252.047,225065.891,133458.875,159838.578,132730.750,147703.281,-0.018,1.017,-0.020,-1.434,0.458,0.366,93.333,23083.000,1.000
141433.703,135552.422,224947.781,225022.078,133124.141,159619.094,132665.391,147436.406,-0.020,1.017,-0.017,-1.373,0.488,0.336,93.333,23084.000,1.000
142041.859,135904.156,225346.719,225147.172,133561.781,160052.000,132857.531,147937.078,-0.019,1.016,-0.020,-1.373,0.580,0.336,93.333,23085.000,1.000
142634.453,136133.313,225816.734,225236.391,134079.625,160433.500,132987.078,148396.719,-0.018,1.015,-0.018,-1.404,0.702,0.244,93.333,23086.000,1.000
141920.438,135718.188,225357.719,225098.438,133575.375,159931.484,132768.922,147818.984,-0.019,1.015,-0.020,-1.343,0.671,0.397,93.333,23087.000,1.000
141432.094,135537.047,224958.781,225037.906,133138.703,159610.953,132675.313,147441.859,-0.020,1.017,-0.018,-1.251,0.671,0.427,93.333,23088.000,1.000
141891.563,135821.813,225236.844,225126.609,133446.000,159943.906,132820.234,147822.016,-0.020,1.017,-0.016,-1.282,0.793,0.397,93.333,23089.000,1.000
142593.766,136124.719,225771.672,225231.297,134042.531,160411.688,132985.641,148385.453,-0.021,1.020,-0.017,-1.221,0.824,0.427,93.333,23090.000,1.000
142046.500,135777.281,225431.750,225111.938,133669.703,160014.000,132798.969,147924.125,-0.020,1.019,-0.014,-1.312,0.824,0.397,93.333,23091.000,1.000
141426.922,135519.172,224957.438,225022.984,133148.094,159601.828,132661.547,147439.625,-0.021,1.019,-0.017,-1.221,0.977,0.336,93.333,23092.000,1.000
141760.844,135752.703,225137.422,225099.328,133339.250,159851.906,132786.438,147709.094,-0.022,1.017,-0.014,-1.160,0.977,0.366,93.333,23093.000,1.000
142560.234,136128.125,225734.125,225239.344,134002.203,160402.203,133001.203,148363.375,-0.023,1.017,-0.016,-1.129,0.916,0.519,93.333,23094.000,1.000
142237.297,135880.109,225557.281,225151.016,133807.469,160156.156,132857.703,148065.828,-0.023,1.018,-0.012,-1.007,0.977,0.458,93.333,23095.000,1.000
