EEG 1,EEG 2,EEG 3,EEG 4,EEG 5,EEG 6,EEG 7,EEG 8,Accelerometer X,Accelerometer Y,Accelerometer Z,Gyroscope X,Gyroscope Y,Gyroscope Z,Battery Level,Counter,Validation Indicator
145468.563,145012.141,490407.938,402053.906,138992.453,163813.172,137983.313,151892.094,-0.028,1.012,-0.109,-0.397,0.702,0.854,93.333,9929.000,1.000
144976.813,144826.703,489913.781,401974.313,138332.094,163394.922,137846.344,151323.828,-0.025,1.010,-0.108,-0.366,0.702,0.885,93.333,9930.000,1.000
145294.922,145010.703,490136.313,402051.219,138575.094,163645.094,137972.500,151670.813,-0.025,1.011,-0.111,-0.488,0.641,0.885,93.333,9931.000,1.000
145935.703,145276.422,490746.344,402169.688,139396.484,164183.859,138177.781,152435.859,-0.027,1.013,-0.108,-0.519,0.580,0.824,93.333,9932.000,1.000
145600.250,145068.547,490496.000,402072.844,139136.938,163917.063,138028.375,152048.109,-0.029,1.010,-0.109,-0.580,0.610,0.885,93.333,9933.000,1.000
144996.219,144821.609,489914.594,401961.375,138382.969,163409.500,137848.313,151361.453,-0.028,1.010,-0.107,-0.610,0.488,0.854,93.333,9934.000,1.000
145192.469,144956.797,490011.688,402013.406,138462.719,163553.719,137937.188,151556.547,-0.027,1.011,-0.109,-0.671,0.580,0.763,93.333,9935.000,1.000
145860.344,145251.125,490634.125,402141.156,139286.953,164113.844,138156.938,152353.250,-0.029,1.012,-0.110,-0.763,0.610,0.824,93.333,9936.000,1.000
145729.797,145138.281,490572.188,402084.125,139270.063,164014.156,138069.953,152187.938,-0.029,1.012,-0.109,-0.793,0.549,0.732,93.333,9937.000,1.000
145051.656,144842.531,489941.500,401952.438,138465.484,163451.969,137854.750,151416.797,-0.029,1.013,-0.106,-0.885,0.427,0.580,93.333,9938.000,1.000
145113.078,144915.672,489908.500,401973.875,138373.578,163480.313,137899.547,151455.422,-0.030,1.013,-0.109,-0.946,0.397,0.519,93.333,9939.000,1.000
145771.203,145216.781,490501.531,402101.719,139146.672,164034.094,138127.625,152239.172,-0.030,1.011,-0.106,-0.946,0.397,0.549,93.333,9940.000,1.000
145835.578,145185.313,490618.031,402080.188,139368.141,164099.547,138110.359,152316.156,-0.032,1.012,-0.105,-1.099,0.275,0.458,93.333,9941.000,1.000
145118.531,144855.766,489975.844,401934.000,138566.344,163516.969,137877.094,151507.188,-0.033,1.013,-0.105,-1.221,0.275,0.458,93.333,9942.000,1.000
145048.344,144876.328,489823.125,401939.625,138323.422,163442.406,137885.766,151391.141,-0.034,1.013,-0.106,-1.282,0.183,0.427,93.333,9943.000,1.000
145654.703,145169.484,490351.344,402063.563,138997.375,163946.828,138099.281,152099.609,-0.032,1.014,-0.104,-1.312,-0.031,0.336,93.333,9944.000,1.000
145916.484,145230.906,490643.781,402083.219,139440.828,164170.078,138142.375,152403.406,-0.035,1.012,-0.106,-1.221,-0.122,0.275,93.333,9945.000,1.000
145220.906,144893.484,490035.281,401929.094,138692.406,163603.422,137894.891,151611.359,-0.035,1.011,-0.108,-1.312,-0.092,0.122,93.333,9946.000,1.000
144996.938,144842.078,489753.469,401899.406,138289.719,163401.094,137850.547,151334.281,-0.031,1.012,-0.109,-1.221,-0.092,0.122,93.333,9947.000,1.000
145524.266,145110.578,490193.000,402015.281,138834.563,163835.516,138049.469,151945.375,-0.031,1.011,-0.109,-1.160,-0.214,0.122,93.333,9948.000,1.000
145956.094,145264.531,490636.563,402080.625,139467.203,164203.438,138169.188,152461.969,-0.031,1.010,-0.108,-1.190,-0.214,0.336,93.333,9949.000,1.000
145349.203,144960.094,490125.406,401945.281,138849.844,163713.297,137946.391,151764.688,-0.030,1.010,-0.106,-1.099,-0.214,0.275,93.333,9950.000,1.000
144985.484,144838.781,489726.313,401890.906,138303.656,163394.656,137854.219,151330.969,-0.030,1.010,-0.109,-1.038,-0.183,0.305,93.333,9951.000,1.000
145398.641,145055.594,490048.063,401979.875,138689.719,163729.938,138011.031,151802.063,-0.028,1.010,-0.109,-0.946,-0.305,0.397,93.333,9952.000,1.000
145959.219,145275.078,490598.719,402073.406,139449.047,164201.734,138174.016,152468.766,-0.028,1.011,-0.107,-1.007,-0.153,0.488,93.333,9953.000,1.000
145466.406,145001.313,490195.063,401941.688,138985.922,163798.063,137963.641,151892.531,-0.028,1.009,-0.107,-0.916,-0.092,0.427,93.333,9954.000,1.000
144964.031,144806.047,489685.094,401848.969,138310.016,163366.859,137818.188,151309.344,-0.026,1.010,-0.107,-0.885,-0.061,0.458,93.333,9955.000,1.000
145290.281,145001.859,489911.813,401930.688,138553.641,163623.531,137958.375,151654.891,-0.025,1.009,-0.107,-0.854,-0.031,0.580,93.333,9956.000,1.000
145943.313,145283.938,490538.031,402060.781,139393.625,164178.219,138178.578,152434.969,-0.026,1.010,-0.108,-0.732,0.122,0.763,93.333,9957.000,1.000
145630.828,145086.703,490306.469,401970.938,139156.250,163927.875,138035.969,152064.641,-0.026,1.012,-0.105,-0.610,0.214,0.824,93.333,9958.000,1.000
145005.609,144823.125,489712.875,401853.000,138387.172,163407.359,137845.094,151361.016,-0.028,1.011,-0.110,-0.580,0.153,0.824,93.333,9959.000,1.000
145185.141,144947.141,489791.031,401894.500,138442.953,163540.484,137926.281,151537.953,-0.028,1.009,-0.106,-0.732,0.305,0.977,93.333,9960.000,1.000
145863.297,145249.516,490419.031,402031.469,139274.000,164115.359,138160.250,152347.891,-0.028,1.010,-0.107,-0.671,0.427,1.099,93.333,9961.000,1.000
145746.438,145136.859,490367.250,401977.188,139274.984,164026.313,138076.750,152203.859,-0.027,1.009,-0.106,-0.641,0.458,1.129,93.333,9962.000,1.000
145053.172,144830.734,489727.906,401838.875,138460.484,163452.766,137854.031,151422.438,-0.027,1.010,-0.107,-0.549,0.427,1.160,93.333,9963.000,1.000
145111.281,144906.719,489690.344,401860.344,138363.656,163481.203,137897.219,151450.688,-0.028,1.011,-0.107,-0.519,0.427,0.977,93.333,9964.000,1.000
145769.328,145213.031,490285.094,401993.094,139134.781,164037.141,138130.031,152229.156,-0.031,1.009,-0.109,-0.458,0.458,0.946,93.333,9965.000,1.000
145850.594,145191.125,490423.750,401977.000,139376.906,164118.047,138118.766,152323.922,-0.030,1.011,-0.108,-0.519,0.427,0.885,93.333,9966.000,1.000
145133.453,144858.438,489781.094,401827.625,138569.375,163527.969,137873.531,151509.609,-0.032,1.012,-0.111,-0.458,0.427,1.007,93.333,9967.000,1.000
145041.016,144863.625,489610.594,401820.000,138303.125,163427.828,137868.344,151372.813,-0.030,1.010,-0.106,-0.458,0.366,1.038,93.333,9968.000,1.000
145648.094,145163.141,490145.719,401952.781,138980.375,163938.875,138094.984,152086.281,-0.031,1.010,-0.104,-0.549,0.458,0.916,93.333,9969.000,1.000
145929.266,145244.688,490462.219,401987.469,139451.828,164183.406,138156.406,152419.063,-0.028,1.012,-0.106,-0.519,0.519,0.824,93.333,9970.000,1.000
145241.016,144916.469,489864.625,401838.969,138714.844,163621.125,137911.609,151633.891,-0.029,1.012,-0.108,-0.488,0.458,0.885,93.333,9971.000,1.000
145010.891,144859.250,489576.000,401805.781,138300.625,163409.859,137859.844,151342.234,-0.028,1.014,-0.105,-0.519,0.549,0.916,93.333,9972.000,1.000
145524.969,145120.234,490004.719,401916.844,138835.094,163837.219,138052.875,151940.641,-0.030,1.014,-0.102,-0.549,0.397,0.885,93.333,9973.000,1.000
145947.250,145266.141,490449.500,401983.906,139473.813,164200.219,138170.531,152464.563,-0.029,1.014,-0.104,-0.610,0.366,0.824,93.333,9974.000,1.000
145325.859,144952.766,489924.438,401840.500,138846.891,163690.141,137942.813,151759.328,-0.028,1.015,-0.106,-0.641,0.427,0.824,93.333,9975.000,1.000
144996.844,144839.125,489532.375,401777.188,138295.969,163383.844,137843.938,151314.969,-0.027,1.014,-0.106,-0.610,0.427,0.824,93.333,9976.000,1.000
145404.625,145056.563,489850.219,401867.750,138673.172,163716.516,138000.750,151782.484,-0.027,1.012,-0.106,-0.610,0.458,0.793,93.333,9977.000,1.000
145969.422,145283.578,490410.813,401972.094,139446.641,164201.281,138179.469,152471.531,-0.027,1.013,-0.104,-0.763,0.427,0.763,93.333,9978.000,1.000
145469.891,145018.844,490021.344,401856.500,139009.703,163809.500,137995.750,151925.266,-0.028,1.015,-0.106,-0.824,0.549,0.732,93.333,9979.000,1.000
145009.281,144838.781,489522.438,401765.750,138338.797,163399.844,137849.828,151338.219,-0.029,1.013,-0.106,-0.916,0.610,0.732,93.333,9980.000,1.000
145299.219,145009.906,489721.906,401831.375,138556.422,163631.500,137968.828,151661.250,-0.029,1.015,-0.105,-0.885,0.610,0.824,93.333,9981.000,1.000
145938.750,145283.031,490337.031,401953.844,139383.781,164173.219,138180.094,152436.484,-0.027,1.016,-0.106,-0.885,0.610,0.793,93.333,9982.000,1.000
145602.844,145081.328,490105.375,401864.719,139157.594,163915.625,138038.563,152074.922,-0.028,1.014,-0.109,-0.916,0.610,0.763,93.333,9983.000,1.000
145026.344,144837.438,489525.219,401747.219,138397.891,163421.922,137850.453,151369.063,-0.028,1.012,-0.105,-1.099,0.519,0.763,93.333,9984.000,1.000
145203.016,144960.094,489607.469,401791.656,138453.953,163555.406,137932.797,151541.078,-0.029,1.011,-0.106,-1.099,0.641,0.763,93.333,9985.000,1.000
145877.688,145262.750,490234.125,401927.469,139280.969,164127.172,138166.516,152346.547,-0.029,1.011,-0.105,-1.099,0.641,0.732,93.333,9986.000,1.000
145725.688,145137.297,490176.469,401871.344,139287.234,164022.563,138084.797,152214.500,-0.028,1.011,-0.107,-1.099,0.702,0.763,93.333,9987.000,1.000
145062.828,144841.813,489543.469,401730.500,138478.359,163465.641,137860.734,151428.781,-0.030,1.012,-0.106,-1.221,0.732,0.671,93.333,9988.000,1.000
145116.828,144910.922,489499.281,401749.281,138372.234,163491.219,137900.969,151445.406,-0.027,1.012,-0.106,-1.221,0.702,0.641,93.333,9989.000,1.000
145762.703,145211.781,490087.594,401882.313,139137.656,164039.813,138128.422,152218.969,-0.026,1.013,-0.109,-1.221,0.732,0.610,93.333,9990.000,1.000
145859.719,145196.313,490234.656,401869.469,139396.125,164128.516,138117.969,152332.422,-0.023,1.012,-0.111,-1.251,0.763,0.610,93.333,9991.000,1.000
145151.516,144872.656,489603.906,401731.156,138608.000,163549.875,137886.391,151530.797,-0.023,1.011,-0.112,-1.190,0.885,0.763,93.333,9992.000,1.000
145056.484,144884.469,489434.469,401731.063,138344.078,163451.078,137880.406,151390.078,-0.023,1.012,-0.113,-1.190,0.916,0.702,93.333,9993.000,1.000
145648.984,145173.969,489950.094,401857.844,138999.781,163950.328,138099.547,152087.891,-0.023,1.010,-0.112,-1.160,1.007,0.763,93.333,9994.000,1.000
145932.219,145247.281,490262.188,401882.688,139469.344,164194.484,138160.078,152428.797,-0.021,1.010,-0.111,-1.099,1.038,0.793,93.333,9995.000,1.000
145246.734,144908.953,489666.313,401728.000,138736.297,163632.031,137908.125,151646.219,-0.021,1.012,-0.113,-1.190,1.099,0.854,93.333,9996.000,1.000
145006.141,144844.859,489367.969,401693.844,138308.484,163411.281,137849.297,151339.109,-0.023,1.012,-0.109,-1.160,1.190,0.916,93.333,9997.000,1.000
145511.391,145101.547,489782.906,401804.531,138822.313,163827.297,138039.641,151921.953,-0.024,1.011,-0.109,-1.068,1.251,1.038,93.333,9998.000,1.000
145970.844,145266.594,490250.125,401874.188,139483.125,164216.844,138166.156,152472.078,-0.025,1.009,-0.109,-0.977,1.434,0.977,93.333,9999.000,1.000
145376.734,144961.797,489750.094,401735.781,138888.109,163734.047,137941.922,151789.000,-0.027,1.008,-0.110,-0.854,1.343,0.946,93.333,10000.000,1.000
144988.891,144830.547,489330.594,401675.875,138320.297,163399.750,137843.578,151326.766,-0.030,1.006,-0.109,-0.946,1.251,0.916,93.333,10001.000,1.000
145400.078,145056.391,489646.094,401772.344,138691.156,163733.594,138008.438,151784.531,-0.031,1.006,-0.110,-0.885,1.312,0.885,93.333,10002.000,1.000
145987.656,145294.656,490221.000,401877.594,139476.953,164231.953,138195.125,152481.016,-0.032,1.007,-0.105,-0.763,1.282,0.854,93.333,10003.000,1.000
145527.750,145036.984,489853.063,401758.781,139059.781,163858.328,138003.438,151942.781,-0.032,1.007,-0.107,-0.671,1.221,0.854,93.333,10004.000,1.000
144994.797,144825.281,489320.563,401662.469,138359.625,163405.031,137846.703,151328.203,-0.033,1.008,-0.105,-0.702,1.038,0.793,93.333,10005.000,1.000
145282.766,144995.500,489504.031,401730.594,138555.250,163628.547,137966.500,151636.391,-0.034,1.009,-0.107,-0.641,0.946,0.671,93.333,10006.000,1.000
145939.828,145273.375,490124.688,401853.000,139388.969,164180.094,138178.047,152420.391,-0.036,1.009,-0.109,-0.549,0.946,0.580,93.333,10007.000,1.000
145655.328,145086.609,489921.125,401763.594,139190.578,163954.609,138039.906,152082.344,-0.034,1.008,-0.107,-0.580,0.763,0.519,93.333,10008.000,1.000
145023.125,144824.016,489322.531,401643.063,138416.406,163429.531,137847.781,151366.734,-0.031,1.008,-0.105,-0.641,0.702,0.397,93.333,10009.000,1.000
145183.344,144943.656,489384.938,401680.813,138454.047,163544.500,137917.953,151517.828,-0.028,1.006,-0.110,-0.549,0.671,0.519,93.333,10010.000,1.000
145859.531,145249.328,490007.844,401815.625,139274.984,164110.359,138145.766,152318.203,-0.027,1.006,-0.107,-0.336,0.580,0.610,93.333,10011.000,1.000
145771.375,145144.906,489984.500,401762.344,139311.016,164037.766,138067.984,152210.563,-0.024,1.008,-0.109,-0.366,0.671,0.610,93.333,10012.000,1.000
145072.750,144832.875,489344.719,401621.781,138495.703,163458.219,137840.891,151422.172,-0.025,1.012,-0.111,-0.275,0.671,0.610,93.333,10013.000,1.000
145101.906,144896.625,489286.250,401639.500,138367.234,163462.875,137874.781,151421.094,-0.024,1.017,-0.111,-0.305,0.732,0.671,93.333,10014.000,1.000
145748.672,145205.703,489877.500,401777.188,139123.703,164011.750,138111.797,152193.391,-0.025,1.019,-0.109,-0.397,0.763,0.885,93.333,10015.000,1.000
145869.375,145204.094,490053.094,401770.750,139414.625,164122.156,138115.547,152336.266,-0.024,1.021,-0.109,-0.366,0.671,0.946,93.333,10016.000,1.000
145155.000,144870.250,489416.688,401619.125,138624.984,163538.422,137873.344,151528.656,-0.026,1.021,-0.106,-0.519,0.763,0.946,93.333,10017.000,1.000
145038.594,144869.359,489221.594,401609.000,138332.266,163426.219,137864.219,151362.797,-0.028,1.019,-0.107,-0.641,0.732,0.854,93.333,10018.000,1.000
145622.344,145159.750,489723.531,401736.313,138968.047,163918.141,138083.547,152046.672,-0.030,1.019,-0.110,-0.732,0.763,0.885,93.333,10019.000,1.000
145932.766,145248.438,490059.250,401774.250,139463.094,164182.875,138154.891,152417.797,-0.030,1.018,-0.105,-0.824,0.732,0.824,93.333,10020.000,1.000
145264.703,144919.328,489478.625,401625.281,138746.313,163630.688,137912.688,151651.234,-0.030,1.017,-0.103,-0.946,0.671,0.671,93.333,10021.000,1.000
145004.359,144845.922,489160.813,401585.219,138299.016,163394.031,137853.766,151325.875,-0.031,1.015,-0.101,-1.007,0.610,0.641,93.333,10022.000,1.000
145498.234,145102.438,489564.469,401693.313,138801.297,163804.859,138041.516,151899.594,-0.032,1.013,-0.106,-1.038,0.397,0.458,93.333,10023.000,1.000
145970.844,145272.672,490038.406,401767.156,139468.906,164202.266,138171.250,152460.359,-0.033,1.014,-0.105,-1.129,0.427,0.397,93.333,10024.000,1.000
145402.578,144975.828,489558.844,401632.719,138894.188,163733.688,137952.563,151795.891,-0.032,1.012,-0.106,-1.129,0.336,0.366,93.333,10025.000,1.000
144992.641,144831.531,489125.563,401561.000,138309.828,163382.938,137844.469,151315.859,-0.033,1.011,-0.106,-1.251,0.275,0.153,93.333,10026.000,1.000
145380.672,145050.047,489423.844,401647.719,138657.172,163704.813,138001.547,151751.188,-0.031,1.011,-0.105,-1.251,0.305,0.183,93.333,10027.000,1.000
145975.406,145295.563,490004.719,401760.188,139444.047,164211.844,138187.078,152459.109,-0.029,1.010,-0.104,-1.190,0.122,0.275,93.333,10028.000,1.000
145541.250,145043.969,489659.406,401644.500,139051.188,163850.813,137994.219,151946.000,-0.028,1.009,-0.105,-1.160,0.122,0.336,93.333,10029.000,1.000
145009.281,144832.250,489133.000,401548.125,138356.672,163396.266,137837.672,151334.641,-0.026,1.009,-0.104,-1.129,0.153,0.275,93.333,10030.000,1.000
145280.797,144998.453,489303.500,401609.375,138538.078,163606.375,137949.438,151621.547,-0.024,1.010,-0.105,-1.129,0.183,0.275,93.333,10031.000,1.000
145934.375,145283.938,489919.250,401735.063,139367.063,164160.156,138166.688,152402.063,-0.024,1.010,-0.101,-1.129,0.275,0.305,93.333,10032.000,1.000
145677.141,145113.875,489742.125,401653.094,139204.344,163956.406,138045.188,152102.375,-0.025,1.008,-0.100,-1.190,0.366,0.458,93.333,10033.000,1.000
145045.484,144850.391,489145.344,401532.938,138433.750,163432.391,137857.344,151388.016,-0.025,1.008,-0.101,-1.068,0.397,0.458,93.333,10034.000,1.000
145185.406,144958.141,489182.781,401567.000,138443.313,163531.891,137926.188,151520.688,-0.024,1.007,-0.102,-1.038,0.427,0.488,93.333,10035.000,1.000
145843.797,145256.938,489790.594,401697.156,139250.125,164093.016,138157.031,152316.688,-0.025,1.009,-0.103,-0.854,0.549,0.641,93.333,10036.000,1.000
145772.906,145162.344,489788.250,401647.375,139317.453,164041.781,138087.656,152235.766,-0.026,1.007,-0.104,-0.824,0.549,0.732,93.333,10037.000,1.000
145075.797,144847.094,489149.875,401504.750,138507.781,163458.578,137855.547,151444.969,-0.027,1.010,-0.103,-0.854,0.610,0.824,93.333,10038.000,1.000
145088.125,144903.328,489073.000,401521.313,138359.359,163452.422,137887.563,151425.750,-0.030,1.009,-0.100,-0.916,0.580,0.916,93.333,10039.000,1.000
145730.781,145210.703,489648.156,401656.938,139103.047,163996.453,138121.531,152187.047,-0.029,1.011,-0.101,-0.916,0.580,1.007,93.333,10040.000,1.000
145875.625,145220.188,489839.219,401659.344,139411.766,164125.109,138132.359,152354.422,-0.029,1.011,-0.102,-0.946,0.671,1.007,93.333,10041.000,1.000
145174.234,144887.688,489217.563,401513.344,138635.719,163548.172,137895.875,151558.328,-0.028,1.009,-0.103,-0.946,0.580,0.977,93.333,10042.000,1.000
145045.031,144876.859,489009.063,401497.969,138329.406,163421.922,137874.500,151372.641,-0.029,1.008,-0.104,-0.854,0.641,1.038,93.333,10043.000,1.000
145616.250,145161.719,489499.125,401619.563,138952.219,163906.516,138084.172,152040.328,-0.028,1.007,-0.102,-0.793,0.671,1.160,93.333,10044.000,1.000
145941.781,145257.469,489853.156,401660.344,139466.844,164187.078,138158.641,152426.750,-0.027,1.007,-0.102,-0.763,0.641,1.282,93.333,10045.000,1.000
145281.781,144929.703,489283.281,401512.281,138768.672,163648.125,137920.375,151670.719,-0.027,1.007,-0.102,-0.824,0.641,1.221,93.333,10046.000,1.000
144999.891,144841.016,488947.031,401460.688,138303.125,163392.688,137846.250,151323.906,-0.026,1.009,-0.102,-0.885,0.732,1.160,93.333,10047.000,1.000
145481.156,145092.688,489339.969,401564.938,138787.703,163790.734,138030.438,151881.906,-0.025,1.008,-0.102,-0.824,0.824,1.129,93.333,10048.000,1.000
145961.906,145269.188,489822.063,401639.063,139466.672,164195.297,138165.531,152455.797,-0.025,1.008,-0.103,-0.793,0.885,1.160,93.333,10049.000,1.000
145405.609,144977.625,489353.656,401507.813,138910.641,163738.156,137954.078,151808.406,-0.026,1.007,-0.105,-0.824,0.916,1.190,93.333,10050.000,1.000
144998.547,144836.094,488920.125,401443.531,138324.766,163385.984,137852.875,151326.953,-0.024,1.007,-0.106,-0.671,0.977,1.282,93.333,10051.000,1.000
145380.313,145049.422,489207.281,401530.500,138657.625,163697.297,138005.578,151750.563,-0.026,1.007,-0.104,-0.671,0.977,1.221,93.333,10052.000,1.000
145971.563,145291.891,489785.750,401637.875,139442.969,164196.547,138185.016,152456.875,-0.025,1.007,-0.105,-0.671,0.977,1.221,93.333,10053.000,1.000
145550.000,145049.781,489455.469,401526.406,139070.063,163851.344,138005.047,151965.313,-0.027,1.010,-0.104,-0.580,1.099,1.160,93.333,10054.000,1.000
145006.953,144831.625,488916.813,401424.656,138363.203,163390.719,137842.672,151338.938,-0.026,1.011,-0.101,-0.580,1.129,1.221,93.333,10055.000,1.000
145260.688,144988.438,489068.344,401478.844,138522.266,163590.016,137948.984,151605.906,-0.027,1.011,-0.105,-0.458,1.099,1.129,93.333,10056.000,1.000
145906.297,145266.234,489677.469,401599.344,139345.609,164141.031,138164.813,152388.031,-0.027,1.013,-0.100,-0.641,1.129,1.099,93.333,10057.000,1.000
145664.188,145101.625,489515.375,401520.938,139202.641,163951.031,138049.125,152107.031,-0.026,1.012,-0.101,-0.671,1.190,1.129,93.333,10058.000,1.000
145027.516,144831.000,488915.094,401398.281,138428.297,163424.250,137856.891,151384.797,-0.027,1.012,-0.104,-0.641,1.068,1.068,93.333,10059.000,1.000
145158.844,144934.891,488948.625,401432.250,138426.781,163519.641,137922.516,151506.484,-0.027,1.014,-0.103,-0.610,1.129,1.068,93.333,10060.000,1.000
145821.359,145238.156,489557.688,401564.031,139231.344,164083.984,138152.828,152301.672,-0.028,1.015,-0.101,-0.549,1.160,1.099,93.333,10061.000,1.000
145784.516,145161.891,489581.094,401527.906,139327.734,164063.516,138098.031,152252.938,-0.026,1.012,-0.107,-0.488,1.129,1.160,93.333,10062.000,1.000
145097.078,144857.453,488956.875,401398.094,138536.203,163499.078,137883.094,151475.641,-0.025,1.012,-0.105,-0.519,1.221,1.129,93.333,10063.000,1.000
145099.844,144909.859,488868.531,401408.656,138375.547,163479.594,137906.156,151437.813,-0.025,1.013,-0.107,-0.427,1.221,1.129,93.333,10064.000,1.000
145731.406,145207.938,489432.781,401537.125,139102.156,164009.328,138125.656,152183.109,-0.026,1.011,-0.106,-0.397,1.251,1.038,93.333,10065.000,1.000
145894.047,145223.313,489635.719,401537.656,139430.906,164146.297,138137.188,152364.344,-0.027,1.012,-0.105,-0.427,1.221,0.946,93.333,10066.000,1.000
145194.969,144895.734,489015.156,401392.750,138655.828,163566.859,137900.969,151569.156,-0.027,1.013,-0.101,-0.305,1.312,0.885,93.333,10067.000,1.000
145047.625,144878.109,488797.000,401377.813,138333.438,163423.359,137877.094,151374.609,-0.028,1.012,-0.101,-0.397,1.282,0.854,93.333,10068.000,1.000
145611.250,145161.000,489281.844,401501.625,138946.766,163898.734,138085.328,152037.734,-0.028,1.009,-0.104,-0.336,1.099,0.793,93.333,10069.000,1.000
145950.641,145265.156,489642.156,401545.094,139474.984,164193.063,138165.797,152440.781,-0.026,1.007,-0.104,-0.061,1.099,0.732,93.333,10070.000,1.000
145299.484,144941.234,489079.094,401397.281,138787.984,163657.250,137928.953,151691.281,-0.027,1.008,-0.102,0.000,1.099,0.824,93.333,10071.000,1.000
145007.484,144853.531,488739.781,401350.719,138316.453,163393.578,137856.172,151335.000,-0.028,1.011,-0.104,0.153,1.007,0.885,93.333,10072.000,1.000
145483.750,145105.125,489126.719,401454.688,138788.609,163788.672,138036.953,151882.250,-0.027,1.012,-0.105,0.275,1.068,0.793,93.333,10073.000,1.000
145975.141,145287.063,489621.156,401530.781,139479.719,164206.469,138176.875,152470.469,-0.027,1.010,-0.103,0.336,1.038,0.793,93.333,10074.000,1.000
145429.578,144999.703,489170.188,401402.125,138943.547,163760.328,137969.641,151836.484,-0.025,1.011,-0.104,0.427,1.068,1.038,93.333,10075.000,1.000
145006.406,144851.016,488727.094,401334.000,138346.672,163397.781,137856.719,151338.938,-0.025,1.011,-0.107,0.458,1.038,1.160,93.333,10076.000,1.000
145374.047,145059.344,488999.969,401420.000,138662.188,163700.422,138003.250,151745.641,-0.025,1.011,-0.109,0.549,1.099,1.099,93.333,10077.000,1.000
145975.234,145308.703,489582.875,401529.625,139455.484,164215.859,138193.781,152462.688,-0.024,1.011,-0.107,0.580,1.160,1.068,93.333,10078.000,1.000
145563.234,145069.719,489263.094,401415.969,139100.641,163883.797,138015.859,151983.906,-0.023,1.013,-0.106,0.732,1.251,1.099,93.333,10079.000,1.000
145006.141,144845.031,488715.656,401311.094,138387.344,163416.297,137850.453,151350.109,-0.026,1.014,-0.106,0.793,1.282,0.946,93.333,10080.000,1.000
145249.594,144997.375,488858.156,401366.375,138533.531,163611.375,137955.156,151612.875,-0.029,1.015,-0.108,0.854,1.282,0.916,93.333,10081.000,1.000
145908.266,145280.438,489475.406,401491.094,139359.375,164168.203,138170.359,152399.203,-0.029,1.016,-0.110,0.732,1.190,0.977,93.333,10082.000,1.000
145684.656,145117.359,489329.875,401415.438,139228.391,163984.828,138051.359,152129.203,-0.028,1.014,-0.108,0.793,1.190,0.916,93.333,10083.000,1.000
145042.797,144843.156,488727.813,401296.625,138450.563,163452.328,137860.203,151401.516,-0.029,1.014,-0.109,0.793,1.129,0.763,93.333,10084.000,1.000
145162.875,144944.094,488749.438,401331.313,138436.438,163539.141,137928.422,151510.500,-0.028,1.012,-0.111,0.854,1.190,0.732,93.333,10085.000,1.000
145832.438,145255.594,489359.813,401470.531,139240.641,164109.109,138169.453,152308.281,-0.028,1.011,-0.113,0.763,1.160,0.793,93.333,10086.000,1.000
145813.219,145187.641,489397.813,401435.031,139355.172,164096.141,138117.516,152273.594,-0.027,1.011,-0.112,0.824,1.129,0.702,93.333,10087.000,1.000
145109.672,144866.672,488760.250,401287.875,138546.578,163511.156,137879.781,151476.438,-0.028,1.010,-0.109,0.916,1.190,0.732,93.333,10088.000,1.000
145091.797,144907.625,488659.313,401294.219,138370.625,163477.719,137896.953,151424.766,-0.027,1.011,-0.111,0.793,1.129,0.793,93.333,10089.000,1.000
145721.047,145207.484,489219.438,401426.969,139093.578,164009.781,138123.859,152169.438,-0.026,1.010,-0.111,0.641,1.007,0.702,93.333,10090.000,1.000
145892.344,145226.891,489432.250,401431.531,139433.500,164156.938,138136.734,152371.219,-0.025,1.010,-0.109,0.732,1.099,0.824,93.333,10091.000,1.000
145188.359,144889.203,488808.625,401279.188,138656.547,163572.938,137888.453,151570.500,-0.025,1.012,-0.109,0.671,1.099,0.732,93.333,10092.000,1.000
145038.156,144871.500,488582.438,401264.000,138322.703,163427.641,137868.516,151365.656,-0.025,1.011,-0.110,0.702,1.160,0.732,93.333,10093.000,1.000
145610.266,145158.844,489074.625,401391.313,138941.844,163909.469,138087.391,152033.891,-0.027,1.008,-0.109,0.702,1.129,0.763,93.333,10094.000,1.000
145961.641,145263.641,489447.156,401432.438,139485.172,164205.578,138167.844,152452.313,-0.026,1.009,-0.111,0.610,1.160,0.732,93.333,10095.000,1.000
145303.422,144934.625,488883.094,401281.250,138795.047,163664.672,137926.281,151701.828,-0.025,1.010,-0.111,0.580,1.190,0.763,93.333,10096.000,1.000
144999.078,144844.313,488536.563,401232.438,138311.797,163398.688,137851.625,151336.781,-0.026,1.012,-0.112,0.458,1.251,0.824,93.333,10097.000,1.000
145467.656,145092.953,488913.313,401335.688,138768.938,163785.453,138030.438,151871.531,-0.027,1.013,-0.111,0.366,1.251,0.793,93.333,10098.000,1.000
145972.984,145287.328,489418.906,401422.156,139471.578,164214.438,138178.844,152474.047,-0.027,1.012,-0.110,0.336,1.282,0.793,93.333,10099.000,1.000
145430.203,144997.375,488970.094,401291.875,138937.203,163766.141,137962.656,151843.359,-0.029,1.014,-0.109,0.275,1.373,0.763,93.333,10100.000,1.000
144992.547,144833.406,488511.156,401215.438,138319.219,163388.125,137836.234,151326.141,-0.029,1.015,-0.107,0.092,1.190,0.763,93.333,10101.000,1.000
145351.078,145035.016,488772.063,401297.063,138619.719,163681.297,137976.344,151724.359,-0.028,1.016,-0.105,-0.061,1.129,0.793,93.333,10102.000,1.000
145955.375,145287.594,489361.875,401408.656,139419.547,164200.125,138170.266,152451.156,-0.030,1.015,-0.107,-0.275,1.068,0.793,93.333,10103.000,1.000
145567.438,145061.672,489062.813,401304.656,139088.656,163888.359,138005.406,151994.641,-0.030,1.015,-0.106,-0.397,1.068,0.824,93.333,10104.000,1.000
145003.906,144832.875,488510.813,401198.281,138367.594,163415.938,137840.438,151353.141,-0.030,1.013,-0.109,-0.488,1.038,0.763,93.333,10105.000,1.000
145240.844,144983.078,488649.219,401252.906,138502.594,163604.406,137948.797,151602.500,-0.030,1.012,-0.108,-0.702,0.885,0.580,93.333,10106.000,1.000
145891.813,145269.000,489266.844,401380.313,139333.453,164160.969,138173.844,152395.453,-0.030,1.014,-0.110,-0.763,0.885,0.488,93.333,10107.000,1.000
145643.172,145099.750,489115.469,401305.125,139215.609,163968.297,138055.203,152138.234,-0.031,1.014,-0.108,-0.763,0.885,0.458,93.333,10108.000,1.000
145033.859,144834.297,488512.875,401177.531,138431.609,163444.547,137851.344,151395.875,-0.031,1.013,-0.107,-0.793,0.854,0.427,93.333,10109.000,1.000
145154.828,144938.641,488536.656,401215.625,138411.031,163532.078,137922.344,151499.688,-0.028,1.012,-0.108,-0.916,0.885,0.366,93.333,10110.000,1.000
145819.391,145243.781,489146.844,401348.031,139206.672,164093.375,138153.094,152291.297,-0.028,1.011,-0.107,-1.007,0.824,0.427,93.333,10111.000,1.000
145770.125,145165.281,489188.781,401314.250,139332.109,164070.219,138105.984,152274.750,-0.029,1.012,-0.107,-1.007,0.763,0.366,93.333,10112.000,1.000
145097.609,144862.922,488560.250,401172.969,138530.031,163504.188,137879.328,151480.547,-0.029,1.010,-0.109,-1.099,0.916,0.336,93.333,10113.000,1.000
145087.422,144905.563,488457.063,401180.219,138348.625,163474.234,137896.953,151423.063,-0.028,1.010,-0.105,-1.190,0.854,0.366,93.333,10114.000,1.000
145712.547,145205.078,489011.406,401313.063,139061.469,163996.813,138120.016,152161.203,-0.029,1.012,-0.103,-1.099,0.793,0.305,93.333,10115.000,1.000
145868.031,145220.281,489228.750,401321.375,139416.234,164136.469,138136.734,152377.922,-0.030,1.014,-0.105,-1.068,0.671,0.183,93.333,10116.000,1.000
145184.250,144895.906,488614.969,401171.906,138653.328,163566.141,137898.563,151582.828,-0.029,1.014,-0.107,-1.099,0.641,0.214,93.333,10117.000,1.000
145046.016,144877.844,488389.313,401151.781,138317.156,163423.172,137871.016,151366.281,-0.030,1.013,-0.109,-1.099,0.732,0.244,93.333,10118.000,1.000
145594.625,145153.578,488860.031,401269.094,138912.609,163885.953,138077.813,152015.469,-0.031,1.012,-0.108,-1.129,0.824,0.244,93.333,10119.000,1.000
145933.297,145258.094,489236.625,401313.875,139469.797,164185.734,138166.516,152448.375,-0.032,1.011,-0.107,-1.190,0.671,0.275,93.333,10120.000,1.000
145284.641,144938.188,488679.438,401168.063,138794.859,163655.094,137933.250,151708.891,-0.031,1.012,-0.108,-1.068,0.641,0.275,93.333,10121.000,1.000
145017.047,144861.031,488344.438,401126.313,138316.531,163408.969,137863.953,151342.781,-0.030,1.012,-0.107,-1.038,0.702,0.275,93.333,10122.000,1.000
145475.703,145105.750,488718.063,401230.563,138770.281,163793.406,138041.703,151870.813,-0.028,1.012,-0.107,-1.038,0.671,0.397,93.333,10123.000,1.000
145972.359,145293.672,489226.594,401314.938,139480.078,164223.453,138191.453,152482.453,-0.030,1.011,-0.106,-0.946,0.763,0.336,93.333,10124.000,1.000
145408.031,144995.859,488769.094,401180.125,138945.063,163769.719,137975.813,151854.547,-0.030,1.010,-0.104,-0.977,0.732,0.366,93.333,10125.000,1.000
145007.672,144846.281,488318.219,401100.906,138328.969,163407.000,137848.219,151331.422,-0.028,1.010,-0.108,-0.916,0.763,0.336,93.333,10126.000,1.000
145351.531,145036.547,488567.406,401177.094,138618.188,163685.234,137986.172,151716.938,-0.029,1.010,-0.108,-0.946,0.702,0.397,93.333,10127.000,1.000
145961.547,145290.734,489156.875,401289.281,139424.016,164204.063,138185.016,152450.172,-0.031,1.010,-0.104,-0.854,0.732,0.519,93.333,10128.000,1.000
145589.078,145072.125,488871.469,401190.406,139114.219,163901.234,138025.969,152010.109,-0.031,1.010,-0.103,-0.824,0.824,0.549,93.333,10129.000,1.000
145015.359,144841.016,488317.250,401089.750,138389.484,163423.172,137859.125,151362.094,-0.030,1.011,-0.100,-0.854,0.885,0.519,93.333,10130.000,1.000
145240.219,144988.078,488449.656,401153.563,138516.719,163601.813,137962.391,151602.328,-0.032,1.012,-0.102,-0.671,0.824,0.488,93.333,10131.000,1.000
145895.125,145271.063,489059.688,401274.438,139331.938,164151.578,138173.219,152384.641,-0.030,1.012,-0.102,-0.610,0.824,0.641,93.333,10132.000,1.000
145701.109,145124.516,488937.563,401201.406,139237.781,163995.297,138060.297,152152.625,-0.029,1.013,-0.105,-0.549,0.854,0.702,93.333,10133.000,1.000
145039.766,144838.781,488322.969,401074.188,138449.031,163443.734,137851.703,151410.281,-0.031,1.013,-0.107,-0.580,0.702,0.671,93.333,10134.000,1.000
145137.938,144932.656,488325.750,401105.125,138407.188,163506.234,137909.906,151496.469,-0.032,1.013,-0.105,-0.641,0.671,0.702,93.333,10135.000,1.000
145804.813,145241.547,488930.500,401240.750,139198.094,164068.609,138146.578,152289.594,-0.033,1.011,-0.105,-0.549,0.824,0.671,93.333,10136.000,1.000
145823.594,145192.734,489001.469,401214.188,139352.938,164084.516,138107.047,152296.922,-0.033,1.014,-0.101,-0.610,0.854,0.732,93.333,10137.000,1.000
145123.094,144872.031,488365.344,401070.156,138552.391,163502.922,137874.859,151500.219,-0.032,1.012,-0.100,-0.458,0.763,0.671,93.333,10138.000,1.000
145084.641,144903.500,488243.219,401073.719,138351.313,163454.469,137889.172,151425.031,-0.031,1.010,-0.102,-0.458,0.824,0.671,93.333,10139.000,1.000
145708.703,145204.891,488792.094,401205.250,139054.500,163975.891,138115.375,152157.625,-0.031,1.010,-0.104,-0.397,0.732,0.671,93.333,10140.000,1.000
145924.078,145252.375,489045.094,401228.063,139441.281,164161.234,138153.813,152405.203,-0.033,1.010,-0.103,-0.305,0.732,0.702,93.333,10141.000,1.000
145229.391,144924.422,488436.688,401084.000,138686.406,163593.141,137916.703,151617.703,-0.033,1.010,-0.103,-0.275,0.702,0.641,93.333,10142.000,1.000
145050.578,144893.484,488192.875,401062.469,138333.250,163429.969,137886.484,151387.203,-0.032,1.008,-0.104,-0.275,0.702,0.610,93.333,10143.000,1.000
145595.063,145167.703,488654.219,401173.969,138912.797,163887.375,138086.938,152020.563,-0.031,1.010,-0.104,-0.244,0.793,0.702,93.333,10144.000,1.000
145969.953,145287.859,489047.875,401222.594,139481.422,164206.922,138179.828,152465.281,-0.032,1.010,-0.104,-0.244,0.732,0.641,93.333,10145.000,1.000
145328.188,144960.547,488496.781,401074.969,138812.922,163678.703,137944.063,151729.547,-0.031,1.010,-0.104,-0.214,0.732,0.793,93.333,10146.000,1.000
145012.578,144859.703,488133.344,401024.375,138306.703,163397.781,137861.906,151341.703,-0.031,1.010,-0.102,-0.214,0.763,0.702,93.333,10147.000,1.000
145464.984,145098.406,488494.813,401123.969,138744.344,163774.094,138035.969,151861.063,-0.029,1.012,-0.101,-0.214,0.732,0.671,93.333,10148.000,1.000
145985.328,145298.953,489019.719,401213.469,139472.484,164222.391,138193.953,152490.141,-0.028,1.013,-0.103,-0.122,0.641,0.732,93.333,10149.000,1.000
145464.625,145020.625,488594.125,401088.031,138972.781,163799.484,137992.797,151887.078,-0.031,1.011,-0.101,-0.061,0.763,0.763,93.333,10150.000,1.000
145008.109,144847.000,488121.813,401006.313,138343.172,163408.344,137862.531,151350.906,-0.030,1.010,-0.105,-0.153,0.824,0.854,93.333,10151.000,1.000
145348.750,145039.578,488364.719,401080.531,138621.766,163683.703,137997.359,151725.344,-0.030,1.011,-0.105,-0.122,0.824,0.946,93.333,10152.000,1.000
145962.531,145295.641,488958.563,401192.719,139431.438,164205.219,138193.516,152463.141,-0.030,1.013,-0.104,-0.092,0.763,0.824,93.333,10153.000,1.000
145602.844,145084.203,488681.938,401097.969,139134.703,163913.938,138042.234,152034.875,-0.030,1.012,-0.104,-0.183,0.793,0.916,93.333,10154.000,1.000
145028.500,144852.000,488120.625,400991.750,138400.484,163430.953,137871.375,151375.859,-0.030,1.010,-0.108,-0.214,0.793,1.007,93.333,10155.000,1.000
145252.906,145001.047,488247.250,401048.250,138517.438,163604.938,137976.344,151607.234,-0.029,1.009,-0.104,-0.122,0.824,0.977,93.333,10156.000,1.000
145913.000,145291.625,488868.719,401174.313,139345.438,164166.500,138201.641,152401.891,-0.031,1.010,-0.104,-0.122,0.793,1.038,93.333,10157.000,1.000
145740.984,145153.672,488761.313,401105.125,139268.453,164021.406,138097.844,152183.641,-0.031,1.010,-0.104,-0.092,0.916,1.068,93.333,10158.000,1.000
145067.125,144855.406,488130.656,400968.313,138464.328,163454.922,137877.016,151423.594,-0.029,1.011,-0.109,-0.092,0.854,1.068,93.333,10159.000,1.000
145153.844,144940.156,488122.594,400993.625,138409.609,163508.203,137927.969,151495.297,-0.029,1.012,-0.104,0.031,0.854,1.129,93.333,10160.000,1.000
145815.359,145247.281,488726.625,401130.406,139196.031,164063.953,138160.250,152285.219,-0.026,1.012,-0.102,0.031,0.916,1.160,93.333,10161.000,1.000
145845.500,145204.625,488814.781,401109.750,139366.172,164090.516,138124.047,152307.563,-0.026,1.011,-0.103,-0.122,0.946,1.251,93.333,10162.000,1.000
145147.047,144891.703,488189.031,400978.063,138570.266,163516.781,137900.078,151516.578,-0.026,1.013,-0.106,-0.092,1.068,1.343,93.333,10163.000,1.000
145097.781,144917.906,488056.875,400982.094,138354.891,163460.813,137912.422,151431.109,-0.026,1.014,-0.108,-0.061,1.099,1.404,93.333,10164.000,1.000
145705.938,145209.359,488596.469,401105.750,139048.516,163976.609,138130.484,152155.578,-0.027,1.015,-0.108,-0.122,1.160,1.465,93.333,10165.000,1.000
145926.766,145257.734,488857.719,401121.844,139444.672,164173.922,138169.453,152414.406,-0.027,1.014,-0.105,-0.092,1.190,1.495,93.333,10166.000,1.000
145242.000,144934.969,488261.094,400980.375,138702.953,163616.391,137940.750,151638.531,-0.028,1.016,-0.101,-0.061,1.251,1.556,93.333,10167.000,1.000
145055.234,144896.797,488006.906,400952.500,138337.906,163442.766,137905.797,151395.250,-0.030,1.016,-0.105,0.031,1.282,1.434,93.333,10168.000,1.000
145593.641,145166.359,488461.375,401067.750,138909.125,163896.500,138105.266,152024.141,-0.032,1.014,-0.105,-0.092,1.190,1.404,93.333,10169.000,1.000
145985.422,145298.688,488878.281,401127.188,139502.344,164238.219,138212.203,152495.047,-0.030,1.012,-0.107,-0.122,1.190,1.251,93.333,10170.000,1.000
145352.781,144974.938,488344.594,400981.906,138852.531,163718.484,137973.563,151770.234,-0.028,1.010,-0.110,-0.092,1.221,1.343,93.333,10171.000,1.000
145021.344,144865.781,487971.500,400923.156,138332.000,163418.703,137881.484,151365.391,-0.027,1.009,-0.112,-0.061,1.190,1.343,93.333,10172.000,1.000
145468.297,145102.531,488328.781,401020.281,138758.391,163786.797,138050.547,151873.047,-0.029,1.009,-0.109,-0.031,1.190,1.190,93.333,10173.000,1.000
146002.406,145307.891,488859.750,401111.719,139490.359,164238.922,138206.031,152507.125,-0.028,1.009,-0.108,0.000,1.099,1.160,93.333,10174.000,1.000
145490.016,145034.750,488439.906,400987.469,138996.922,163818.531,138002.891,151909.438,-0.028,1.009,-0.106,0.122,1.221,1.221,93.333,10175.000,1.000
145020.188,144857.906,487960.063,400904.750,138356.953,163418.438,137873.344,151365.844,-0.029,1.007,-0.104,0.061,1.160,1.129,93.333,10176.000,1.000
145350.359,145047.266,488193.781,400980.563,138623.016,163686.391,138008.891,151734.281,-0.027,1.007,-0.110,0.122,1.129,1.038,93.333,10177.000,1.000
145971.109,145307.891,488788.063,401095.188,139432.953,164213.891,138208.703,152477.797,-0.026,1.008,-0.108,0.183,1.251,1.099,93.333,10178.000,1.000
145616.531,145096.453,488515.188,400995.938,139144.625,163927.172,138057.609,152059.734,-0.024,1.010,-0.107,0.336,1.282,1.129,93.333,10179.000,1.000
145027.422,144857.109,487945.125,400886.594,138406.750,163435.688,137888.281,151393.734,-0.022,1.010,-0.108,0.427,1.343,1.129,93.333,10180.000,1.000
145234.047,144994.516,488053.313,400933.625,138506.344,163594.125,137979.922,151611.078,-0.021,1.010,-0.111,0.488,1.312,1.190,93.333,10181.000,1.000
145904.859,145296.188,488680.063,401069.875,139340.516,164162.313,138209.875,152416.188,-0.020,1.011,-0.110,0.488,1.404,1.282,93.333,10182.000,1.000
145746.703,145166.625,488589.844,401009.188,139285.438,164033.297,138110.813,152215.750,-0.020,1.014,-0.113,0.671,1.465,1.282,93.333,10183.000,1.000
145073.734,144872.219,487963.375,400878.813,138486.766,163471.547,137896.234,151458.641,-0.022,1.015,-0.110,0.519,1.495,1.251,93.333,10184.000,1.000
145155.719,144955.813,487946.906,400906.375,138424.000,163521.344,137950.063,151523.109,-0.023,1.016,-0.112,0.519,1.556,1.343,93.333,10185.000,1.000
145814.469,145260.859,488544.875,401038.500,139207.297,164078.266,138179.656,152305.063,-0.024,1.016,-0.111,0.488,1.556,1.251,93.333,10186.000,1.000
145846.125,145216.969,488636.875,401011.406,139393.078,164116.438,138143.891,152337.156,-0.026,1.015,-0.114,0.519,1.678,1.190,93.333,10187.000,1.000
145136.594,144892.859,488001.719,400862.094,138593.609,163538.422,137909.469,151535.172,-0.029,1.014,-0.115,0.519,1.556,1.129,93.333,10188.000,1.000
145082.234,144920.766,487869.406,400866.750,138381.172,163485.047,137925.109,151445.594,-0.030,1.013,-0.108,0.397,1.495,0.916,93.333,10189.000,1.000
145693.141,145215.531,488409.875,400993.719,139075.328,164007.547,138148.625,152167.906,-0.031,1.014,-0.108,0.336,1.434,0.824,93.333,10190.000,1.000
145923.734,145265.250,488677.375,401011.406,139485.359,164208.969,138188.141,152439.625,-0.035,1.014,-0.108,0.183,1.373,0.580,93.333,10191.000,1.000
145230.734,144929.344,488066.625,400858.625,138731.297,163636.141,137942.719,151649.266,-0.034,1.012,-0.106,0.122,1.190,0.336,93.333,10192.000,1.000
145025.188,144877.578,487789.844,400822.844,138340.234,163441.688,137893.281,151384.266,-0.035,1.012,-0.104,0.122,1.099,0.122,93.333,10193.000,1.000
145561.188,145145.000,488239.375,400940.156,138900.094,163884.250,138088.719,152007.344,-0.034,1.013,-0.108,0.092,0.885,-0.092,93.333,10194.000,1.000
145976.656,145293.406,488670.219,401011.500,139508.328,164234.641,138203.797,152496.656,-0.035,1.013,-0.110,0.153,0.763,-0.092,93.333,10195.000,1.000
145355.813,144983.344,488143.000,400871.750,138867.281,163722.875,137975.625,151780.516,-0.033,1.013,-0.110,0.000,0.702,-0.214,93.333,10196.000,1.000
145015.359,144872.578,487760.594,400814.813,138343.172,163421.484,137889.344,151367.359,-0.032,1.012,-0.109,-0.183,0.641,-0.244,93.333,10197.000,1.000
145450.766,145104.844,488106.250,400910.563,138756.594,163781.797,138055.469,151864.469,-0.031,1.013,-0.108,-0.153,0.549,-0.153,93.333,10198.000,1.000
145989.000,145316.125,488639.906,401001.938,139491.969,164238.297,138212.734,152507.125,-0.028,1.013,-0.110,-0.305,0.549,-0.153,93.333,10199.000,1.000
145488.672,145045.844,488230.438,400879.094,139015.344,163831.500,138016.578,151924.188,-0.028,1.013,-0.107,-0.397,0.458,-0.183,93.333,10200.000,1.000
145010.172,144862.016,487740.750,400793.969,138366.516,163420.141,137879.953,151369.422,-0.027,1.013,-0.106,-0.336,0.458,-0.153,93.333,10201.000,1.000
145332.656,145045.031,487964.000,400863.188,138618.469,163670.922,138001.828,151722.047,-0.030,1.013,-0.107,-0.427,0.519,0.031,93.333,10202.000,1.000
145969.063,145314.156,488568.938,400985.031,139436.984,164200.656,138207.188,152478.156,-0.028,1.014,-0.107,-0.458,0.488,0.031,93.333,10203.000,1.000
145632.625,145109.500,488311.438,400895.469,139166.078,163923.672,138059.219,152079.672,-0.027,1.013,-0.108,-0.488,0.488,0.214,93.333,10204.000,1.000
145041.813,144865.500,487738.594,400783.688,138423.203,163425.953,137877.547,151406.797,-0.028,1.013,-0.104,-0.549,0.671,0.397,93.333,10205.000,1.000
145243.781,144999.891,487843.281,400830.813,138514.750,163577.047,137966.234,151612.688,-0.031,1.013,-0.105,-0.580,0.580,0.427,93.333,10206.000,1.000
145907.813,145294.391,488464.125,400960.000,139340.328,164139.859,138193.688,152407.703,-0.031,1.013,-0.104,-0.549,0.519,0.610,93.333,10207.000,1.000
145763.594,145173.328,488386.813,400902.250,139302.781,164025.875,138109.297,152223.438,-0.033,1.014,-0.104,-0.702,0.427,0.580,93.333,10208.000,1.000
145103.234,144891.250,487774.531,400778.875,138515.563,163482.906,137910.531,151473.219,-0.032,1.014,-0.105,-0.824,0.275,0.732,93.333,10209.000,1.000
145182.281,144978.250,487762.844,400809.969,138450.734,163538.688,137964.188,151534.109,-0.033,1.012,-0.105,-0.916,0.153,0.885,93.333,10210.000,1.000
145829.500,145274.094,488349.344,400938.469,139221.250,164087.469,138186.453,152308.453,-0.035,1.009,-0.105,-0.977,0.153,0.916,93.333,10211.000,1.000
145872.594,145232.250,488447.250,400914.844,139415.250,164129.141,138159.359,152354.859,-0.034,1.009,-0.103,-1.038,0.000,0.946,93.333,10212.000,1.000
145166.094,144908.516,487809.938,400770.656,138613.641,163546.203,137924.750,151553.328,-0.034,1.009,-0.104,-1.038,-0.122,0.885,93.333,10213.000,1.000
145102.172,144927.906,487661.094,400767.250,138377.688,163473.516,137926.719,151443.625,-0.033,1.009,-0.104,-1.099,-0.061,0.916,93.333,10214.000,1.000
145712.016,145224.297,488197.344,400895.375,139063.531,163989.031,138148.625,152160.406,-0.030,1.008,-0.105,-1.099,-0.061,0.885,93.333,10215.000,1.000
145951.797,145276.688,488475.844,400913.594,139486.516,164198.875,138189.844,152444.531,-0.031,1.006,-0.109,-0.977,-0.061,0.885,93.333,10216.000,1.000
145261.672,144941.406,487873.594,400766.250,138739.156,163629.969,137946.922,151658.203,-0.031,1.006,-0.108,-0.946,-0.092,0.916,93.333,10217.000,1.000
145059.156,144897.688,487604.750,400741.406,138351.141,163441.063,137906.250,151392.938,-0.030,1.007,-0.107,-0.916,-0.031,0.824,93.333,10218.000,1.000
145588.453,145165.641,488048.219,400856.656,138907.250,163885.953,138106.422,152010.906,-0.031,1.008,-0.106,-0.824,-0.092,0.854,93.333,10219.000,1.000
146001.250,145303.422,488472.188,400916.188,139516.016,164235.625,138215.063,152505.156,-0.029,1.007,-0.104,-0.793,-0.092,0.885,93.333,10220.000,1.000
145388.531,144990.594,487947.531,400775.375,138880.156,163727.156,137984.484,151797.500,-0.028,1.007,-0.106,-0.732,-0.061,0.946,93.333,10221.000,1.000
145041.016,144878.563,487560.063,400718.688,138349.078,163423.453,137897.219,151379.344,-0.028,1.007,-0.107,-0.732,-0.061,0.977,93.333,10222.000,1.000
145470.172,145112.625,487898.625,400813.656,138757.938,163781.875,138067.891,151870.547,-0.027,1.008,-0.107,-0.641,0.061,0.946,93.333,10223.000,1.000
146018.500,145331.938,488439.563,400908.500,139509.672,164251.000,138234.453,152527.063,-0.029,1.010,-0.105,-0.519,0.092,0.916,93.333,10224.000,1.000
145518.172,145058.813,488028.281,400784.063,139034.391,163837.938,138032.844,151944.578,-0.029,1.009,-0.105,-0.580,0.122,0.946,93.333,10225.000,1.000
145036.094,144876.234,487536.625,400703.406,138380.016,163424.250,137899.984,151384.969,-0.026,1.012,-0.108,-0.580,0.214,0.977,93.333,10226.000,1.000
145354.109,145061.484,487754.250,400775.125,138624.813,163680.844,138025.969,151733.297,-0.025,1.013,-0.105,-0.519,0.275,0.977,93.333,10227.000,1.000
145982.922,145324.438,488355.594,400888.313,139440.203,164215.688,138228.203,152488.438,-0.024,1.013,-0.105,-0.488,0.305,0.946,93.333,10228.000,1.000
145652.109,145118.172,488104.906,400790.406,139179.766,163947.281,138077.281,152094.594,-0.024,1.013,-0.103,-0.458,0.336,0.946,93.333,10229.000,1.000
145056.844,144876.594,487537.250,400683.906,138442.781,163458.406,137903.203,151419.938,-0.022,1.012,-0.106,-0.458,0.458,0.977,93.333,10230.000,1.000
145255.500,145014.188,487636.844,400734.625,138527.266,163611.469,137997.984,151620.469,-0.022,1.013,-0.109,-0.580,0.580,1.038,93.333,10231.000,1.000
145919.438,145308.781,488256.281,400862.094,139346.766,164172.500,138226.953,152416.016,-0.023,1.013,-0.105,-0.458,0.702,1.038,93.333,10232.000,1.000
145783.453,145191.125,488192.781,400807.313,139325.500,164067.719,138140.219,152250.875,-0.025,1.013,-0.107,-0.305,0.885,1.129,93.333,10233.000,1.000
145114.594,144897.875,487570.063,400678.813,138528.781,163511.781,137928.859,151489.484,-0.026,1.012,-0.111,-0.305,0.977,1.129,93.333,10234.000,1.000
145178.516,144971.281,487536.375,400701.531,138439.828,163545.313,137976.781,151530.625,-0.026,1.014,-0.106,-0.427,1.099,0.977,93.333,10235.000,1.000
145826.625,145268.281,488123.500,400828.656,139211.406,164092.844,138199.594,152306.766,-0.029,1.014,-0.105,-0.397,1.160,0.977,93.333,10236.000,1.000
145878.047,145230.109,488231.156,400804.719,139419.109,164144.875,138169.016,152367.469,-0.030,1.015,-0.106,-0.336,1.221,0.885,93.333,10237.000,1.000
145177.531,144910.125,487602.250,400665.844,138622.938,163567.219,137939.688,151570.578,-0.032,1.012,-0.107,-0.214,1.221,0.854,93.333,10238.000,1.000
145117.094,144934.625,487457.500,400670.594,138385.828,163494.797,137950.594,151462.766,-0.029,1.008,-0.106,-0.397,1.129,0.732,93.333,10239.000,1.000
145720.859,145227.344,487986.250,400792.813,139063.531,164007.359,138166.422,152172.297,-0.029,1.007,-0.106,-0.244,1.160,0.702,93.333,10240.000,1.000
145975.313,145290.281,488277.281,400817.844,139502.969,164231.063,138215.500,152473.328,-0.032,1.006,-0.109,-0.153,1.068,0.763,93.333,10241.000,1.000
145293.141,144962.781,487682.281,400672.281,138768.672,163671.281,137980.094,151694.688,-0.031,1.008,-0.108,-0.061,1.068,0.732,93.333,10242.000,1.000
145072.031,144905.109,487398.844,400639.938,138365.172,163467.250,137925.109,151412.781,-0.030,1.010,-0.109,0.031,1.129,0.702,93.333,10243.000,1.000
145599.984,145174.859,487840.969,400755.625,138914.750,163908.922,138120.641,152026.563,-0.026,1.012,-0.108,0.122,1.068,0.671,93.333,10244.000,1.000
146001.250,145315.578,488274.250,400820.969,139536.500,164260.203,138237.594,152534.219,-0.026,1.013,-0.109,0.183,1.251,0.671,93.333,10245.000,1.000
145388.094,145011.422,487754.344,400686.406,138910.563,163748.438,138017.828,151831.203,-0.026,1.011,-0.111,0.214,1.251,0.824,93.333,10246.000,1.000
145073.922,144908.516,487375.781,400627.781,138376.531,163451.781,137928.234,151403.297,-0.025,1.008,-0.109,0.275,1.312,0.885,93.333,10247.000,1.000
145494.484,145135.344,487710.000,400719.313,138775.906,163802.172,138090.688,151886.734,-0.027,1.008,-0.110,0.275,1.343,0.916,93.333,10248.000,1.000
146035.672,145349.641,488252.688,400816.250,139528.266,164266.469,138257.266,152550.031,-0.027,1.011,-0.107,0.397,1.373,0.916,93.333,10249.000,1.000
145520.406,145074.813,487841.969,400694.188,139060.484,163844.641,138056.000,151975.063,-0.030,1.010,-0.106,0.427,1.282,0.977,93.333,10250.000,1.000
145079.719,144907.625,487362.031,400609.250,138412.203,163450.266,137920.016,151408.578,-0.031,1.012,-0.107,0.488,1.251,0.824,93.333,10251.000,1.000
145373.156,145079.094,487564.531,400672.750,138638.047,163690.859,138038.391,151739.109,-0.032,1.012,-0.108,0.519,1.312,0.946,93.333,10252.000,1.000
146001.609,145346.609,488170.625,400789.500,139458.984,164234.453,138244.031,152499.703,-0.032,1.012,-0.108,0.580,1.251,0.946,93.333,10253.000,1.000
145641.109,145134.172,487921.250,400693.938,139203.453,163957.750,138100.344,152117.219,-0.032,1.012,-0.107,0.458,1.251,0.946,93.333,10254.000,1.000
145086.969,144906.094,487360.219,400582.625,138460.922,163479.422,137927.969,151436.297,-0.031,1.011,-0.109,0.549,1.007,0.916,93.333,10255.000,1.000
145274.813,145035.203,487455.438,400634.281,138537.375,163626.484,138018.453,151630.313,-0.031,1.013,-0.108,0.458,1.068,0.854,93.333,10256.000,1.000
145940.094,145334.719,488074.500,400767.875,139359.641,164195.297,138243.219,152428.266,-0.031,1.014,-0.105,0.458,1.007,0.854,93.333,10257.000,1.000
145774.422,145204.984,488004.313,400712.094,139343.375,164078.797,138157.297,152272.781,-0.030,1.014,-0.109,0.366,0.977,0.854,93.333,10258.000,1.000
145138.016,144924.969,487389.031,400579.750,138550.063,163536.906,137945.047,151507.813,-0.029,1.013,-0.108,0.275,0.946,0.946,93.333,10259.000,1.000
145205.172,144999.438,487360.313,400603.000,138464.953,163574.000,137987.516,151544.922,-0.029,1.011,-0.109,0.244,0.946,0.916,93.333,10260.000,1.000
145858.188,145301.641,487949.500,400749.438,139235.109,164125.922,138215.953,152318.109,-0.030,1.012,-0.107,0.244,0.824,0.946,93.333,10261.000,1.000
145938.297,145277.047,488079.688,400743.906,139472.125,164197.797,138197.531,152403.859,-0.030,1.010,-0.109,0.244,0.854,0.885,93.333,10262.000,1.000
145231.266,144953.391,487451.250,400598.625,138681.766,163617.453,137963.203,151603.484,-0.032,1.009,-0.109,0.122,0.824,0.854,93.333,10263.000,1.000
145140.969,144959.656,487285.406,400588.250,138421.047,163526.438,137961.234,151472.141,-0.030,1.010,-0.111,0.122,0.824,0.946,93.333,10264.000,1.000
145744.203,145256.844,487816.375,400716.188,139092.859,164036.875,138189.313,152185.703,-0.028,1.012,-0.109,0.092,0.732,0.824,93.333,10265.000,1.000
146018.500,145330.688,488122.875,400743.813,139551.156,164270.406,138250.281,152508.188,-0.027,1.012,-0.111,0.092,0.763,0.946,93.333,10266.000,1.000
145336.063,145000.328,487526.094,400594.875,138814.266,163708.469,138007.547,151727.938,-0.029,1.013,-0.110,0.031,0.824,0.916,93.333,10267.000,1.000
145101.813,144940.969,487233.281,400558.125,138397.000,163494.172,137951.578,151435.406,-0.027,1.012,-0.109,0.000,0.824,0.916,93.333,10268.000,1.000
145610.359,145196.484,487655.531,400660.656,138924.953,163910.453,138136.203,152030.406,-0.027,1.012,-0.107,-0.031,0.763,0.946,93.333,10269.000,1.000
146034.328,145342.047,488096.594,400718.781,139552.500,164265.922,138248.234,152545.563,-0.028,1.011,-0.112,-0.031,0.763,0.946,93.333,10270.000,1.000
145429.672,145033.328,487586.781,400577.969,138936.578,163767.578,138020.859,151848.906,-0.029,1.011,-0.111,-0.183,0.732,0.977,93.333,10271.000,1.000
145068.375,144914.766,487190.969,400521.906,138393.156,163454.203,137935.125,151413.141,-0.031,1.012,-0.109,-0.244,0.732,0.946,93.333,10272.000,1.000
145486.266,145144.016,487516.063,400614.625,138783.156,163796.813,138101.063,151888.688,-0.030,1.012,-0.109,-0.397,0.641,0.977,93.333,10273.000,1.000
146048.000,145365.828,488066.531,400710.281,139543.828,164270.313,138270.578,152561.125,-0.030,1.012,-0.110,-0.427,0.641,0.916,93.333,10274.000,1.000
145579.875,145105.031,487684.500,400592.625,139105.469,163891.844,138081.313,152012.172,-0.030,1.012,-0.111,-0.397,0.732,0.946,93.333,10275.000,1.000
145070.156,144904.047,487169.094,400499.813,138427.406,163465.016,137935.391,151425.125,-0.029,1.010,-0.108,-0.488,0.793,0.916,93.333,10276.000,1.000
145366.984,145082.234,487369.875,400568.656,138646.172,163707.141,138061.453,151751.453,-0.029,1.012,-0.107,-0.610,0.732,0.793,93.333,10277.000,1.000
146013.766,145361.172,487990.719,400693.406,139479.359,164259.047,138279.156,152526.078,-0.030,1.012,-0.108,-0.580,0.671,0.763,93.333,10278.000,1.000
145713.891,145170.656,487771.500,400602.125,139255.313,164013.266,138138.609,152164.156,-0.027,1.012,-0.109,-0.641,0.610,0.763,93.333,10279.000,1.000
145107.891,144920.047,487191.688,400489.906,138499.547,163502.391,137957.828,151474.109,-0.030,1.011,-0.109,-0.610,0.580,0.702,93.333,10280.000,1.000
145281.703,145044.141,487269.219,400534.156,138556.500,163637.047,138035.344,151649.984,-0.031,1.010,-0.112,-0.488,0.610,0.671,93.333,10281.000,1.000
145941.875,145339.453,487884.969,400664.688,139373.953,164204.328,138258.422,152444.813,-0.029,1.013,-0.110,-0.641,0.488,0.641,93.333,10282.000,1.000
145828.063,145229.391,487839.625,400611.688,139378.953,164112.234,138178.578,152305.859,-0.028,1.013,-0.108,-0.732,0.519,0.580,93.333,10283.000,1.000
145150.094,144932.656,487215.125,400480.875,138582.875,163546.016,137963.109,151537.141,-0.029,1.014,-0.107,-0.793,0.580,0.488,93.333,10284.000,1.000
145202.578,145008.375,487173.563,400504.656,138482.828,163570.969,138004.422,151560.484,-0.030,1.012,-0.106,-0.916,0.488,0.519,93.333,10285.000,1.000
145853.719,145311.297,487758.438,400637.594,139243.781,164116.172,138232.219,152329.469,-0.030,1.012,-0.106,-0.885,0.488,0.549,93.333,10286.000,1.000
145937.313,145290.547,487896.063,400622.844,139485.078,164187.156,138220.875,152424.953,-0.031,1.012,-0.108,-0.885,0.549,0.519,93.333,10287.000,1.000
145237.703,144969.672,487269.219,400476.313,138694.016,163609.063,137985.469,151623.781,-0.028,1.015,-0.110,-0.885,0.580,0.580,93.333,10288.000,1.000
145156.609,144984.688,487104.719,400469.531,138435.453,163528.594,137979.656,151489.844,-0.029,1.014,-0.109,-0.916,0.519,0.610,93.333,10289.000,1.000
145755.828,145277.219,487630.250,400594.781,139103.578,164035.703,138199.234,152191.063,-0.030,1.012,-0.106,-0.946,0.488,0.610,93.333,10290.000,1.000
146029.406,145341.688,487935.281,400619.531,139560.906,164261.719,138251.719,152512.047,-0.028,1.011,-0.106,-1.038,0.610,0.580,93.333,10291.000,1.000
145347.500,145004.984,487343.969,400465.219,138831.438,163704.813,138003.703,151731.609,-0.028,1.011,-0.109,-1.038,0.427,0.488,93.333,10292.000,1.000
145111.203,144947.313,487055.813,400432.938,138419.172,163504.453,137951.938,151437.906,-0.030,1.011,-0.104,-0.916,0.366,0.549,93.333,10293.000,1.000
145617.688,145209.719,487482.438,400542.750,138948.906,163929.844,138146.844,152030.578,-0.031,1.011,-0.103,-0.916,0.427,0.427,93.333,10294.000,1.000
146058.375,145364.938,487935.219,400606.313,139593.359,164301.422,138272.641,152558.984,-0.033,1.009,-0.105,-1.007,0.336,0.458,93.333,10295.000,1.000
145465.969,145058.453,487432.563,400468.000,138992.094,163820.953,138050.016,151875.547,-0.031,1.009,-0.105,-0.916,0.458,0.458,93.333,10296.000,1.000
145087.500,144935.063,487025.500,400413.000,138436.781,163502.922,137960.156,151433.969,-0.031,1.009,-0.109,-0.824,0.397,0.397,93.333,10297.000,1.000
145492.781,145154.828,487337.688,400500.281,138804.609,163831.047,138120.563,151889.859,-0.030,1.009,-0.106,-0.824,0.336,0.458,93.333,10298.000,1.000
146064.188,145386.578,487895.969,400601.750,139569.125,164316.000,138297.484,152566.672,-0.031,1.009,-0.105,-0.763,0.427,0.549,93.333,10299.000,1.000
145606.328,145136.047,487529.844,400489.813,139142.125,163949.875,138113.047,152029.781,-0.034,1.010,-0.106,-0.671,0.336,0.488,93.333,10300.000,1.000
145096.359,144939.266,487018.344,400399.688,138462.453,163518.391,137971.875,151444.078,-0.034,1.010,-0.108,-0.549,0.244,0.519,93.333,10301.000,1.000
145392.375,145117.906,487214.500,400470.313,138678.547,163754.344,138094.719,151765.844,-0.033,1.009,-0.110,-0.580,0.305,0.458,93.333,10302.000,1.000
146031.906,145390.422,487822.563,400587.906,139499.750,164293.734,138295.969,152533.141,-0.031,1.010,-0.106,-0.488,0.214,0.427,93.333,10303.000,1.000
145740.000,145200.875,487611.094,400494.281,139286.781,164054.219,138150.594,152182.125,-0.031,1.012,-0.103,-0.488,0.214,0.458,93.333,10304.000,1.000
145121.484,144944.719,487020.844,400378.781,138522.531,163534.125,137961.953,151477.688,-0.031,1.011,-0.106,-0.397,0.397,0.641,93.333,10305.000,1.000
145293.859,145075.703,487097.563,400427.781,138573.578,163662.250,138048.313,151645.781,-0.033,1.012,-0.107,-0.397,0.336,0.641,93.333,10306.000,1.000
145974.156,145384.609,487727.250,400566.781,139404.531,164234.641,138286.141,152454.641,-0.031,1.014,-0.109,-0.366,0.305,0.793,93.333,10307.000,1.000
145877.688,145279.469,487697.281,400516.281,139427.688,164158.906,138206.563,152335.453,-0.029,1.013,-0.106,-0.244,0.305,0.732,93.333,10308.000,1.000
145188.000,144970.656,487062.500,400375.188,138619.531,163587.781,137976.516,151556.375,-0.030,1.013,-0.106,-0.305,0.275,0.885,93.333,10309.000,1.000
145227.422,145036.094,487009.844,400392.438,138506.344,163600.469,138015.594,151564.859,-0.030,1.012,-0.109,-0.366,0.336,0.916,93.333,10310.000,1.000
145871.781,145336.688,487590.906,400524.500,139263.531,164141.031,138247.422,152326.516,-0.030,1.014,-0.105,-0.336,0.305,1.038,93.333,10311.000,1.000
145971.109,145322.203,487740.844,400513.250,139523.266,164227.750,138238.297,152437.469,-0.030,1.012,-0.102,-0.397,0.275,0.977,93.333,10312.000,1.000
145262.031,144991.297,487109.000,400364.094,138732.719,163646.609,137998.156,151636.297,-0.029,1.012,-0.103,-0.275,0.397,1.038,93.333,10313.000,1.000
145155.719,144988.438,486925.281,400350.969,138455.469,163538.609,137989.750,151487.250,-0.027,1.010,-0.107,-0.122,0.519,1.007,93.333,10314.000,1.000
145736.516,145269.891,487427.188,400466.313,139097.953,164021.938,138200.578,152172.375,-0.029,1.011,-0.105,-0.183,0.488,1.099,93.333,10315.000,1.000
146031.469,145348.484,487750.750,400493.938,139580.031,164278.094,138260.203,152515.703,-0.030,1.011,-0.108,-0.153,0.580,1.160,93.333,10316.000,1.000
145355.094,145017.141,487165.781,400348.281,138860.391,163728.234,138016.484,151743.766,-0.030,1.009,-0.109,-0.092,0.610,1.221,93.333,10317.000,1.000
145095.109,144949.188,486856.063,400312.344,138426.063,163499.359,137963.281,151430.750,-0.030,1.008,-0.110,-0.031,0.641,1.190,93.333,10318.000,1.000
145600.078,145211.156,487275.656,400422.313,138946.594,163922.609,138157.391,152016.719,-0.029,1.010,-0.108,-0.092,0.732,1.190,93.333,10319.000,1.000
146060.438,145378.797,487742.719,400493.750,139604.797,164315.188,138282.469,152562.906,-0.029,1.009,-0.107,0.000,0.793,1.190,93.333,10320.000,1.000
145471.063,145072.313,487246.594,400352.844,139006.672,163830.688,138057.344,151879.938,-0.029,1.011,-0.106,0.061,0.824,1.190,93.333,10321.000,1.000
145084.375,144942.844,486832.469,400291.969,138438.578,163495.516,137960.156,151419.125,-0.030,1.010,-0.106,0.122,0.824,1.129,93.333,10322.000,1.000
145492.969,145172.891,487150.938,400390.750,138811.938,163835.875,138126.906,151880.016,-0.031,1.009,-0.107,0.122,0.885,1.099,93.333,10323.000,1.000
146068.031,145405.531,487715.625,400492.125,139587.984,164328.953,138303.750,152569.344,-0.031,1.011,-0.107,0.122,0.916,1.068,93.333,10324.000,1.000
145614.297,145150.531,487352.000,400378.781,139179.219,163964.000,138122.438,152043.547,-0.029,1.011,-0.105,0.092,0.977,1.068,93.333,10325.000,1.000
145092.063,144942.219,486829.781,400283.813,138492.125,163522.953,137973.844,151446.391,-0.029,1.012,-0.107,0.061,0.977,1.068,93.333,10326.000,1.000
145375.938,145111.906,487015.313,400350.969,138691.516,163747.016,138090.969,151756.109,-0.028,1.012,-0.108,0.031,0.916,1.160,93.333,10327.000,1.000
146024.219,145391.219,487632.031,400474.719,139517.547,164294.453,138301.969,152532.328,-0.028,1.014,-0.106,-0.031,0.916,1.221,93.333,10328.000,1.000
145745.813,145215.453,487437.844,400390.750,139327.641,164074.859,138171.250,152201.625,-0.028,1.013,-0.109,-0.183,1.038,1.068,93.333,10329.000,1.000
145120.141,144954.375,486839.625,400273.094,138555.875,163548.531,137979.656,151486.453,-0.031,1.015,-0.110,-0.183,1.007,1.007,93.333,10330.000,1.000
145284.563,145075.250,486898.906,400317.719,138590.656,163660.906,138055.203,151638.531,-0.030,1.015,-0.106,-0.244,1.068,0.916,93.333,10331.000,1.000
145953.328,145375.656,487516.500,400450.219,139408.906,164220.859,138279.875,152434.703,-0.031,1.015,-0.107,-0.305,1.038,1.007,93.333,10332.000,1.000
145863.828,145271.688,487494.531,400394.156,139448.422,164148.172,138202.094,152325.359,-0.031,1.014,-0.105,-0.336,1.068,1.129,93.333,10333.000,1.000
145171.016,144962.328,486855.719,400253.438,138639.031,163572.047,137977.594,151541.609,-0.030,1.014,-0.107,-0.275,1.007,1.038,93.333,10334.000,1.000
145199.703,145020.531,486787.938,400269.781,138506.875,163577.500,138009.156,151539.203,-0.030,1.013,-0.106,-0.458,1.129,1.038,93.333,10335.000,1.000
145845.313,145322.828,487364.969,400403.281,139257.906,164121.172,138234.281,152302.375,-0.031,1.012,-0.107,-0.458,1.068,1.068,93.333,10336.000,1.000
145966.828,145323.719,487535.188,400398.813,139543.281,164227.938,138230.172,152437.469,-0.030,1.012,-0.106,-0.549,1.068,1.068,93.333,10337.000,1.000
145256.938,144992.734,486904.875,400251.094,138753.281,163645.438,137989.313,151633.969,-0.030,1.009,-0.108,-0.488,1.129,1.190,93.333,10338.000,1.000
145143.203,144993.453,486715.250,400246.000,138463.156,163534.672,137980.906,151474.656,-0.031,1.010,-0.108,-0.488,1.099,1.068,93.333,10339.000,1.000
145733.922,145283.938,487226.125,400375.094,139108.406,164029.094,138202.453,152166.578,-0.030,1.010,-0.106,-0.549,0.977,1.129,93.333,10340.000,1.000
146040.141,145367.531,487562.031,400410.688,139601.844,164289.266,138271.203,152529.109,-0.028,1.012,-0.106,-0.427,1.068,1.190,93.333,10341.000,1.000
145369.406,145039.938,486980.156,400262.813,138885.250,163741.828,138032.219,151759.594,-0.028,1.013,-0.111,-0.427,1.038,1.282,93.333,10342.000,1.000
145116.563,144973.875,486670.906,400229.906,138446.438,163519.922,137979.922,151441.922,-0.028,1.012,-0.109,-0.488,1.068,1.343,93.333,10343.000,1.000
145611.703,145225.453,487077.438,400334.875,138950.703,163933.250,138168.297,152015.469,-0.027,1.013,-0.111,-0.397,1.007,1.404,93.333,10344.000,1.000
146085.906,145399.094,487557.188,400410.969,139628.672,164339.688,138302.672,152578.734,-0.029,1.013,-0.108,-0.397,1.038,1.434,93.333,10345.000,1.000
145505.297,145096.094,487067.250,400274.063,139044.313,163865.469,138081.125,151907.109,-0.029,1.013,-0.110,-0.336,1.068,1.404,93.333,10346.000,1.000
145101.547,144949.375,486633.250,400203.188,138462.000,163514.547,137969.547,151431.563,-0.029,1.012,-0.110,-0.397,1.129,1.495,93.333,10347.000,1.000
145492.781,145160.641,486927.688,400288.281,138806.672,163829.266,138118.953,151868.750,-0.030,1.009,-0.110,-0.427,1.068,1.526,93.333,10348.000,1.000
146078.844,145398.188,487498.625,400391.031,139586.922,164325.656,138297.484,152565.953,-0.030,1.010,-0.108,-0.397,1.099,1.434,93.333,10349.000,1.000
145630.563,145143.734,487142.531,400271.563,139183.250,163959.625,138105.719,152042.922,-0.030,1.010,-0.111,-0.336,1.038,1.343,93.333,10350.000,1.000
145104.406,144941.500,486618.406,400181.188,138493.828,163515.719,137958.453,151437.719,-0.028,1.011,-0.113,-0.214,0.854,1.404,93.333,10351.000,1.000
145385.938,145114.063,486801.250,400248.250,138689.984,163742.266,138079.703,151739.109,-0.027,1.012,-0.112,-0.275,0.824,1.373,93.333,10352.000,1.000
146034.766,145393.453,487417.188,400369.469,139518.797,164293.734,138291.953,152517.406,-0.028,1.011,-0.112,-0.183,1.007,1.343,93.333,10353.000,1.000
145767.000,145213.297,487229.063,400283.469,139334.969,164073.797,138162.938,152196.172,-0.029,1.011,-0.110,-0.275,0.916,1.312,93.333,10354.000,1.000
145131.406,144943.375,486629.594,400163.375,138557.125,163536.641,137968.656,151477.688,-0.026,1.010,-0.108,-0.244,0.824,1.221,93.333,10355.000,1.000
145284.375,145059.516,486685.938,400205.313,138581.984,163644.813,138042.859,151625.563,-0.025,1.008,-0.110,-0.214,0.885,1.099,93.333,10356.000,1.000
145956.188,145365.109,487307.219,400342.844,139398.813,164213.266,138275.766,152428.719,-0.025,1.010,-0.110,-0.183,1.038,1.190,93.333,10357.000,1.000
145884.297,145273.109,487300.688,400296.594,139452.547,164159.359,138207.813,152337.703,-0.023,1.012,-0.110,-0.244,1.099,1.160,93.333,10358.000,1.000
145185.938,144963.500,486665.375,400157.563,138646.000,163582.500,137984.125,151551.984,-0.021,1.012,-0.110,-0.275,1.038,1.160,93.333,10359.000,1.000
145206.141,145027.156,486596.969,400177.594,138515.203,163582.688,138021.219,151546.266,-0.020,1.014,-0.110,-0.275,1.129,1.160,93.333,10360.000,1.000
145843.531,145326.484,487169.344,400305.531,139259.688,164120.469,138245.188,152306.578,-0.021,1.016,-0.112,-0.397,1.160,1.099,93.333,10361.000,1.000
145971.109,145324.875,487347.281,400297.156,139553.656,164231.594,138242.688,152457.500,-0.019,1.016,-0.114,-0.427,1.251,1.190,93.333,10362.000,1.000
145257.734,144986.922,486716.500,400143.906,138764.906,163643.656,137994.578,151651.313,-0.019,1.017,-0.110,-0.458,1.221,1.251,93.333,10363.000,1.000
145129.531,144976.469,486512.906,400127.188,138458.781,163516.969,137976.438,151474.563,-0.022,1.016,-0.111,-0.488,1.343,1.099,93.333,10364.000,1.000
145718.359,145270.875,487020.031,400257.719,139103.859,164017.641,138200.484,152165.672,-0.021,1.014,-0.112,-0.549,1.373,1.129,93.333,10365.000,1.000
146043.984,145372.094,487372.375,400303.750,139622.406,164305.359,138284.344,152550.125,-0.022,1.013,-0.111,-0.641,1.343,0.946,93.333,10366.000,1.000
145373.344,145044.766,486793.031,400157.563,138915.922,163760.063,138047.422,151786.141,-0.027,1.012,-0.111,-0.610,1.434,0.763,93.333,10367.000,1.000
145096.531,144964.750,486465.188,400113.938,138463.969,163517.594,137989.031,151453.109,-0.031,1.011,-0.108,-0.732,1.404,0.549,93.333,10368.000,1.000
145587.297,145218.672,486866.875,400219.344,138960.266,163926.266,138175.984,152021.188,-0.034,1.011,-0.109,-0.732,1.404,0.275,93.333,10369.000,1.000
146065.438,145393.906,487346.813,400295.438,139633.953,164330.391,138305.719,152587.859,-0.035,1.010,-0.109,-0.732,1.190,0.000,93.333,10370.000,1.000
145488.047,145088.578,486860.719,400157.219,139054.766,163852.688,138079.609,151918.109,-0.035,1.010,-0.108,-0.702,1.129,-0.122,93.333,10371.000,1.000
145079.906,144939.797,486423.250,400089.281,138465.313,163498.016,137967.484,151435.406,-0.036,1.010,-0.108,-0.732,0.824,-0.305,93.333,10372.000,1.000
145473.656,145156.531,486715.438,400179.469,138806.672,163816.297,138119.484,151873.313,-0.036,1.009,-0.111,-0.732,0.702,-0.427,93.333,10373.000,1.000
146070.094,145400.422,487292.094,400288.031,139596.844,164322.969,138309.109,152589.375,-0.035,1.009,-0.108,-0.763,0.732,-0.671,93.333,10374.000,1.000
145642.000,145154.563,486950.313,400175.281,139213.734,163974.016,138131.016,152088.156,-0.033,1.009,-0.106,-0.763,0.610,-0.732,93.333,10375.000,1.000
145104.484,144940.875,486416.813,400076.219,138516.094,163519.375,137971.422,151468.656,-0.034,1.010,-0.106,-0.732,0.366,-0.732,93.333,10376.000,1.000
145368.422,145101.266,486578.375,400131.375,138688.734,163727.781,138074.422,151746.000,-0.034,1.012,-0.109,-0.732,0.244,-0.641,93.333,10377.000,1.000
146024.125,145388.188,487197.969,400257.281,139520.750,164281.125,138293.203,152531.703,-0.031,1.010,-0.108,-0.763,0.214,-0.580,93.333,10378.000,1.000
145770.844,145218.578,487023.156,400178.781,139358.938,164073.438,138169.453,152231.750,-0.031,1.010,-0.107,-0.763,0.183,-0.488,93.333,10379.000,1.000
145133.547,144946.422,486418.156,400056.625,138578.859,163533.859,137970.531,151507.281,-0.029,1.011,-0.105,-0.702,0.183,-0.427,93.333,10380.000,1.000
145270.781,145056.219,486460.094,400093.031,138591.281,163632.563,138041.781,151640.953,-0.027,1.010,-0.106,-0.671,0.153,-0.214,93.333,10381.000,1.000
145940.266,145362.875,487072.250,400226.406,139399.703,164199.141,138272.281,152436.766,-0.028,1.012,-0.103,-0.763,0.122,-0.122,93.333,10382.000,1.000
145843.703,145265.422,487067.688,400186.188,139467.109,164139.688,138211.219,152362.469,-0.027,1.014,-0.104,-0.732,0.122,0.153,93.333,10383.000,1.000
145186.484,144976.641,486446.313,400049.563,138669.969,163582.688,137989.938,151578.906,-0.029,1.016,-0.105,-0.854,0.153,0.458,93.333,10384.000,1.000
145204.453,145028.500,486369.438,400058.063,138520.734,163573.734,138014.422,151554.578,-0.030,1.016,-0.106,-0.885,0.061,0.549,93.333,10385.000,1.000
145842.375,145331.500,486945.281,400191.563,139259.250,164113.313,138240.813,152314.094,-0.032,1.015,-0.104,-0.946,0.061,0.702,93.333,10386.000,1.000
145954.750,145326.750,487127.594,400194.688,139564.563,164224.172,138245.375,152482.172,-0.032,1.014,-0.104,-0.916,-0.031,0.732,93.333,10387.000,1.000
145265.969,145001.859,486501.219,400046.344,138778.234,163652.328,138005.750,151676.984,-0.033,1.012,-0.100,-0.916,0.031,0.854,93.333,10388.000,1.000
145158.047,144995.594,486305.063,400032.125,138473.797,163541.828,137994.406,151497.359,-0.034,1.013,-0.099,-1.038,-0.092,0.946,93.333,10389.000,1.000
145732.313,145278.391,486800.281,400154.188,139101.172,164028.547,138210.766,152174.797,-0.033,1.010,-0.099,-1.038,-0.244,1.068,93.333,10390.000,1.000
146041.391,145367.797,487151.906,400195.844,139621.250,164304.016,138294.719,152568.641,-0.032,1.010,-0.102,-1.099,-0.397,1.099,93.333,10391.000,1.000
145376.203,145042.438,486575.063,400046.969,138913.063,163759.438,138059.938,151805.906,-0.031,1.009,-0.103,-1.160,-0.366,1.007,93.333,10392.000,1.000
145131.047,144971.984,486254.531,400004.344,138455.828,163525.734,137993.156,151463.750,-0.033,1.009,-0.101,-1.038,-0.336,1.007,93.333,10393.000,1.000
145609.109,145218.219,486647.375,400111.000,138938.188,163925.375,138177.422,152021.016,-0.032,1.007,-0.106,-1.068,-0.214,1.068,93.333,10394.000,1.000
146079.656,145392.656,487134.656,400193.875,139622.688,164329.859,138315.375,152601.359,-0.031,1.007,-0.109,-1.007,-0.183,1.099,93.333,10395.000,1.000
145502.797,145094.922,486656.875,400059.844,139059.063,163855.813,138096.063,151945.109,-0.030,1.007,-0.102,-0.916,-0.214,1.007,93.333,10396.000,1.000
145133.734,144963.234,486234.875,399990.219,138476.125,163524.563,137986.625,151459.719,-0.029,1.010,-0.105,-0.916,-0.153,0.946,93.333,10397.000,1.000
145503.156,145166.625,486513.531,400071.313,138799.688,163825.859,138129.234,151878.594,-0.029,1.008,-0.102,-0.854,-0.275,0.885,93.333,10398.000,1.000
146106.469,145413.125,487098.438,400179.313,139594.781,164335.219,138317.156,152595.016,-0.030,1.009,-0.103,-0.824,-0.183,0.916,93.333,10399.000,1.000
145687.875,145172.625,486771.500,400066.375,139225.984,163995.031,138140.578,152103.891,-0.028,1.009,-0.105,-0.854,-0.061,0.854,93.333,10400.000,1.000
145141.156,144954.563,486233.781,399965.625,138521.641,163536.016,137980.281,151475.813,-0.027,1.007,-0.104,-0.763,0.092,0.793,93.333,10401.000,1.000
145395.953,145111.469,486393.031,400026.344,138687.219,163735.391,138088.547,151748.063,-0.026,1.010,-0.104,-0.732,0.214,0.854,93.333,10402.000,1.000
146050.859,145398.016,487016.719,400154.813,139519.422,164289.625,138308.938,152535.547,-0.024,1.012,-0.102,-0.610,0.214,0.854,93.333,10403.000,1.000
145808.297,145229.844,486853.563,400075.063,139369.484,164093.469,138184.922,152247.938,-0.024,1.011,-0.104,-0.519,0.305,0.854,93.333,10404.000,1.000
145159.125,144949.188,486241.031,399948.531,138582.969,163552.188,137983.047,151516.047,-0.024,1.012,-0.106,-0.458,0.397,0.916,93.333,10405.000,1.000
145294.922,145058.984,486280.813,399989.844,138585.297,163650.359,138055.828,151639.063,-0.024,1.013,-0.106,-0.488,0.610,1.007,93.333,10406.000,1.000
145967.531,145369.766,486903.375,400130.313,139400.953,164225.516,138294.984,152441.859,-0.022,1.012,-0.107,-0.427,0.641,1.068,93.333,10407.000,1.000
145924.984,145293.406,486929.125,400090.000,139498.234,164201.563,138240.453,152388.656,-0.021,1.012,-0.105,-0.366,0.885,1.099,93.333,10408.000,1.000
145218.031,144974.313,486288.250,399943.438,138687.391,163617.906,138005.313,151588.547,-0.021,1.012,-0.109,-0.366,1.007,1.007,93.333,10409.000,1.000
145209.547,145022.594,486193.656,399955.781,138520.297,163596.813,138027.484,151547.344,-0.021,1.011,-0.107,-0.305,1.190,1.068,93.333,10410.000,1.000
145843.625,145325.063,486756.281,400086.938,139249.406,164133.344,138251.453,152297.016,-0.025,1.012,-0.106,-0.427,1.312,0.977,93.333,10411.000,1.000
146004.547,145340.078,486961.313,400086.500,139581.547,164274.422,138263.609,152485.219,-0.023,1.013,-0.105,-0.427,1.404,0.977,93.333,10412.000,1.000
145305.484,145012.500,486343.125,399940.219,138809.250,163699.797,138026.141,151692.266,-0.024,1.014,-0.105,-0.397,1.556,1.068,93.333,10413.000,1.000
145160.547,144997.469,486129.188,399925.375,138491.063,163565.063,138007.547,151501.563,-0.026,1.014,-0.104,-0.397,1.556,1.099,93.333,10414.000,1.000
145726.766,145280.266,486615.188,400043.688,139105.469,164040.797,138218.188,152166.578,-0.027,1.015,-0.103,-0.366,1.648,1.007,93.333,10415.000,1.000
146071.250,145386.391,486982.563,400088.094,139641.281,164330.750,138303.125,152574.453,-0.030,1.013,-0.104,-0.397,1.740,0.977,93.333,10416.000,1.000
145418.047,145063.281,486423.500,399944.625,138954.625,163792.703,138070.750,151824.672,-0.032,1.014,-0.109,-0.336,1.740,0.916,93.333,10417.000,1.000
145127.922,144979.859,486086.531,399902.500,138481.406,163534.938,138002.359,151470.625,-0.032,1.012,-0.111,-0.427,1.678,0.854,93.333,10418.000,1.000
145606.156,145231.266,486477.063,400010.250,138957.141,163931.813,138183.594,152022.094,-0.031,1.009,-0.109,-0.397,1.709,0.793,93.333,10419.000,1.000
146098.422,145415.359,486973.719,400091.500,139648.250,164347.563,138322.078,152613.422,-0.030,1.010,-0.109,-0.366,1.648,0.732,93.333,10420.000,1.000
145544.109,145123.453,486511.750,399957.563,139100.016,163889.250,138105.625,151969.703,-0.030,1.010,-0.109,-0.305,1.678,0.732,93.333,10421.000,1.000
145115.938,144968.859,486062.031,399883.719,138494.641,163517.859,137986.984,151463.828,-0.028,1.012,-0.107,-0.244,1.648,0.702,93.333,10422.000,1.000
145479.734,145174.766,486332.500,399967.219,138811.500,163817.734,138131.828,151874.563,-0.029,1.012,-0.107,-0.275,1.678,0.732,93.333,10423.000,1.000
146078.766,145418.672,486913.813,400073.813,139609.813,164330.125,138319.844,152596.000,-0.028,1.012,-0.106,-0.244,1.648,0.793,93.333,10424.000,1.000
145672.141,145180.672,486590.250,399961.594,139252.625,163997.703,138143.172,152116.500,-0.027,1.010,-0.110,-0.214,1.648,0.793,93.333,10425.000,1.000
145115.047,144959.656,486042.469,399861.375,138537.641,163532.344,137981.703,151483.234,-0.027,1.009,-0.110,-0.183,1.678,0.977,93.333,10426.000,1.000
145360.906,145115.406,486190.531,399921.375,138687.313,163728.594,138088.016,151747.078,-0.028,1.008,-0.107,0.000,1.709,0.916,93.333,10427.000,1.000
146021.813,145406.156,486812.875,400050.375,139518.969,164288.813,138310.016,152538.234,-0.027,1.009,-0.106,0.092,1.740,1.007,93.333,10428.000,1.000
145799.453,145246.734,486664.031,399974.375,139388.703,164105.266,138191.813,152267.953,-0.029,1.009,-0.108,0.061,1.770,1.068,93.333,10429.000,1.000
145148.563,144960.906,486049.063,399845.375,138599.422,163555.234,137984.031,151525.703,-0.030,1.012,-0.102,0.122,1.801,1.099,93.333,10430.000,1.000
145274.984,145066.766,486076.781,399880.938,138590.391,163642.578,138052.781,151638.625,-0.033,1.012,-0.103,0.122,1.831,1.038,93.333,10431.000,1.000
145944.828,145373.781,486688.531,400016.031,139392.016,164208.625,138285.516,152434.797,-0.032,1.012,-0.106,0.092,1.740,1.038,93.333,10432.000,1.000
145929.453,145309.859,486732.063,399984.125,139506.188,164203.250,138239.906,152405.734,-0.033,1.012,-0.108,0.061,1.617,1.007,93.333,10433.000,1.000
145230.016,144996.047,486099.406,399844.906,138701.156,163626.219,138015.500,151614.484,-0.033,1.010,-0.109,0.153,1.465,0.916,93.333,10434.000,1.000
145209.906,145037.609,485995.688,399854.125,138521.906,163596.266,138034.813,151562.094,-0.033,1.009,-0.112,0.305,1.404,0.885,93.333,10435.000,1.000
145848.719,145344.281,486562.188,399990.656,139253.969,164140.844,138265.938,152313.828,-0.033,1.010,-0.108,0.183,1.312,0.916,93.333,10436.000,1.000
146025.563,145360.641,486781.594,399991.094,139603.281,164297.938,138281.047,152515.172,-0.035,1.010,-0.111,0.122,1.251,0.854,93.333,10437.000,1.000
145321.484,145024.563,486163.250,399841.000,138831.250,163720.453,138039.281,151714.531,-0.035,1.011,-0.111,0.214,1.129,0.885,93.333,10438.000,1.000
145157.422,144998.281,485933.750,399819.625,138494.453,163570.703,138014.156,151503.531,-0.032,1.011,-0.111,0.183,1.038,1.007,93.333,10439.000,1.000
145710.500,145274.094,486412.594,399936.375,139100.453,164042.234,138220.328,152160.938,-0.033,1.009,-0.110,0.092,0.946,0.946,93.333,10440.000,1.000
146063.109,145384.422,486790.094,399980.813,139646.641,164341.656,138303.484,152581.422,-0.032,1.010,-0.113,0.092,0.977,0.885,93.333,10441.000,1.000
145416.344,145065.953,486234.781,399837.406,138964.469,163805.578,138069.953,151836.297,-0.031,1.010,-0.107,0.061,1.038,0.916,93.333,10442.000,1.000
145117.813,144977.531,485887.688,399793.438,138480.156,163536.641,137996.641,151470.453,-0.031,1.012,-0.106,0.122,0.977,0.885,93.333,10443.000,1.000
145597.750,145235.656,486278.125,399909.031,138954.094,163933.422,138186.266,152021.641,-0.030,1.012,-0.106,0.031,0.824,0.885,93.333,10444.000,1.000
146102.453,145426.531,486784.000,399993.875,139660.328,164360.250,138335.938,152628.531,-0.031,1.012,-0.108,0.000,0.702,0.824,93.333,10445.000,1.000
145552.688,145132.828,486328.219,399859.063,139119.406,163906.781,138118.859,151991.328,-0.029,1.014,-0.107,-0.031,0.793,0.977,93.333,10446.000,1.000
145114.594,144974.859,485873.844,399782.531,138504.563,163535.734,137999.313,151474.469,-0.029,1.015,-0.111,-0.183,0.641,0.946,93.333,10447.000,1.000
145469.359,145176.906,486135.813,399859.063,138806.938,163830.063,138142.813,151875.281,-0.029,1.014,-0.109,-0.214,0.641,1.038,93.333,10448.000,1.000
146074.375,145426.797,486720.688,399963.938,139604.359,164343.094,138333.703,152605.203,-0.030,1.014,-0.111,-0.305,0.732,1.038,93.333,10449.000,1.000
145677.688,145195.234,486414.469,399856.531,139265.953,164024.625,138167.672,152145.031,-0.028,1.014,-0.108,-0.305,0.641,1.099,93.333,10450.000,1.000
145119.781,144972.344,485869.563,399756.938,138547.203,163557.828,138009.594,151505.766,-0.029,1.015,-0.110,-0.397,0.580,1.038,93.333,10451.000,1.000
145356.344,145126.125,486005.000,399810.938,138678.359,163736.906,138110.266,151749.938,-0.030,1.013,-0.109,-0.580,0.580,1.007,93.333,10452.000,1.000
146014.828,145413.656,486625.750,399938.094,139511.547,164296.141,138328.344,152541.094,-0.031,1.012,-0.108,-0.580,0.549,0.946,93.333,10453.000,1.000
145826.188,145274.813,486509.531,399877.469,139419.906,164147.469,138221.672,152301.578,-0.031,1.012,-0.107,-0.580,0.610,1.007,93.333,10454.000,1.000
145171.719,144991.844,485894.938,399750.156,138629.453,163600.922,138014.078,151555.031,-0.031,1.011,-0.111,-0.641,0.427,0.793,93.333,10455.000,1.000
145278.656,145087.500,485907.531,399782.531,138598.969,163672.172,138073.969,151645.953,-0.031,1.011,-0.110,-0.671,0.305,0.946,93.333,10456.000,1.000
145945.813,145396.234,486522.313,399921.375,139402.734,164241.875,138311.172,152443.641,-0.029,1.013,-0.112,-0.702,0.214,0.885,93.333,10457.000,1.000
145939.547,145332.031,486575.313,399888.094,139534.078,164242.234,138266.828,152428.172,-0.031,1.013,-0.111,-0.641,0.183,0.854,93.333,10458.000,1.000
145240.125,145012.219,485940.438,399745.156,138728.516,163661.984,138037.938,151630.219,-0.030,1.014,-0.110,-0.641,0.183,0.824,93.333,10459.000,1.000
145219.563,145052.453,485833.063,399754.188,138544.344,163629.438,138059.219,151570.500,-0.031,1.014,-0.108,-0.702,0.275,0.671,93.333,10460.000,1.000
145840.766,145347.234,486387.219,399881.313,139257.813,164156.672,138282.109,152309.078,-0.029,1.012,-0.110,-0.793,0.244,0.549,93.333,10461.000,1.000
146024.938,145369.500,486611.094,399881.500,139614.281,164310.281,138300.438,152525.984,-0.027,1.012,-0.108,-0.702,0.061,0.549,93.333,10462.000,1.000
145324.703,145033.688,485995.000,399731.375,138846.625,163731.813,138056.266,151730.266,-0.028,1.011,-0.109,-0.793,0.305,0.488,93.333,10463.000,1.000
145153.484,145006.141,485757.625,399712.344,138500.172,163573.922,138026.953,151507.641,-0.027,1.010,-0.107,-0.885,0.244,0.641,93.333,10464.000,1.000
145714.156,145291.078,486234.594,399836.781,139098.406,164041.250,138236.969,152158.609,-0.029,1.012,-0.107,-0.885,0.214,0.549,93.333,10465.000,1.000
146087.797,145412.859,486625.469,399887.125,139660.328,164353.453,138329.500,152598.234,-0.030,1.012,-0.106,-0.854,0.275,0.458,93.333,10466.000,1.000
145446.297,145088.219,486075.375,399742.625,138990.844,163827.391,138092.297,151862.766,-0.028,1.011,-0.107,-0.946,0.183,0.488,93.333,10467.000,1.000
145136.953,144991.219,485718.000,399694.438,138493.656,163552.547,138013.891,151483.234,-0.029,1.010,-0.107,-1.007,0.122,0.397,93.333,10468.000,1.000
145596.141,145235.297,486085.563,399794.406,138938.453,163931.906,138192.703,152009.219,-0.030,1.012,-0.107,-0.916,0.153,0.458,93.333,10469.000,1.000
146105.844,145429.672,486598.219,399878.281,139654.422,164370.172,138345.234,152625.672,-0.029,1.013,-0.109,-0.916,0.244,0.366,93.333,10470.000,1.000
145572.625,145148.484,486160.469,399750.969,139142.828,163941.656,138141.297,152013.500,-0.030,1.013,-0.105,-0.977,0.092,0.427,93.333,10471.000,1.000
145128.813,144989.609,485697.531,399676.750,138522.172,163566.766,138025.063,151493.250,-0.031,1.012,-0.107,-1.007,0.153,0.366,93.333,10472.000,1.000
145478.750,145188.891,485949.750,399757.219,138812.469,163852.875,138162.938,151880.375,-0.031,1.014,-0.108,-1.068,0.092,0.275,93.333,10473.000,1.000
146088.422,145440.219,486536.625,399866.750,139614.281,164368.484,138349.344,152608.859,-0.029,1.013,-0.104,-1.007,0.122,0.183,93.333,10474.000,1.000
145713.797,145215.172,486247.469,399762.656,139298.313,164062.078,138182.609,152161.391,-0.029,1.013,-0.105,-1.038,0.244,0.275,93.333,10475.000,1.000
145134.266,144975.203,485690.281,399653.844,138569.281,163578.031,138012.281,151505.141,-0.030,1.012,-0.106,-1.068,0.122,0.336,93.333,10476.000,1.000
145366.906,145128.000,485825.188,399712.969,138695.984,163758.547,138112.594,151742.609,-0.032,1.013,-0.104,-1.190,0.092,0.244,93.333,10477.000,1.000
146033.875,145422.250,486454.344,399843.938,139531.125,164326.016,138338.266,152538.953,-0.031,1.012,-0.104,-1.129,0.153,0.244,93.333,10478.000,1.000
145845.047,145276.875,486337.938,399774.656,139444.766,164171.688,138235.797,152310.609,-0.031,1.011,-0.103,-1.007,0.183,0.336,93.333,10479.000,1.000
145184.063,144989.969,485715.313,399647.344,138647.078,163616.297,138027.750,151561.203,-0.031,1.012,-0.104,-0.977,0.214,0.427,93.333,10480.000,1.000
145280.266,145079.453,485714.063,399673.344,138599.422,163674.500,138079.344,151643.094,-0.030,1.011,-0.103,-1.007,0.122,0.519,93.333,10481.000,1.000
145942.063,145384.609,486320.781,399806.219,139389.516,164231.594,138312.516,152436.578,-0.032,1.010,-0.102,-1.038,0.214,0.397,93.333,10482.000,1.000
145957.703,145335.703,486395.969,399782.688,139547.313,164249.750,138278.719,152447.219,-0.032,1.011,-0.105,-1.038,0.183,0.458,93.333,10483.000,1.000
145249.328,145010.891,485753.500,399639.281,138738.891,163663.234,138042.406,151647.391,-0.032,1.011,-0.104,-0.854,0.153,0.458,93.333,10484.000,1.000
145205.969,145035.469,485623.688,399639.281,138528.969,163604.672,138046.531,151565.750,-0.032,1.012,-0.103,-0.824,0.214,0.671,93.333,10485.000,1.000
145826.813,145331.406,486172.469,399768.313,139232.688,164122.703,138268.078,152298.531,-0.032,1.011,-0.102,-0.854,0.122,0.702,93.333,10486.000,1.000
146037.359,145375.391,486425.656,399785.563,139621.078,164304.813,138303.297,152549.328,-0.032,1.010,-0.104,-0.916,0.153,0.732,93.333,10487.000,1.000
145346.969,145050.484,485821.094,399642.156,138865.313,163740.031,138067.813,151762.625,-0.032,1.013,-0.104,-0.885,0.031,0.793,93.333,10488.000,1.000
145164.219,145013.031,485566.719,399614.156,138494.641,163564.172,138027.031,151517.031,-0.030,1.012,-0.104,-0.854,0.122,0.885,93.333,10489.000,1.000
145710.500,145286.172,486029.219,399729.063,139074.891,164019.516,138227.125,152150.297,-0.030,1.010,-0.102,-0.702,0.183,0.885,93.333,10490.000,1.000
146094.047,145411.516,486431.906,399785.719,139654.953,164352.922,138326.281,152602.703,-0.029,1.012,-0.108,-0.641,0.244,0.946,93.333,10491.000,1.000
145465.250,145093.859,485889.656,399646.156,138998.703,163843.391,138092.922,151875.547,-0.029,1.012,-0.110,-0.580,0.244,1.007,93.333,10492.000,1.000
145137.844,144982.984,485511.906,399585.375,138484.266,163548.797,138005.125,151476.703,-0.027,1.010,-0.107,-0.610,0.366,1.129,93.333,10493.000,1.000
145593.281,145223.406,485876.063,399684.625,138925.125,163920.906,138180.719,151994.469,-0.027,1.011,-0.104,-0.519,0.397,1.190,93.333,10494.000,1.000
146120.328,145431.281,486405.375,399775.625,139656.125,164376.875,138334.953,152623.344,-0.027,1.011,-0.106,-0.580,0.397,1.190,93.333,10495.000,1.000
145599.266,145157.063,485979.781,399654.844,139153.031,163960.688,138131.375,152016.016,-0.028,1.013,-0.105,-0.641,0.397,1.282,93.333,10496.000,1.000
145136.047,144982.906,485498.500,399573.563,138511.438,163558.359,138004.141,151473.391,-0.029,1.012,-0.107,-0.641,0.519,1.312,93.333,10497.000,1.000
145477.500,145178.875,485738.844,399650.813,138786.094,163827.203,138142.641,151848.547,-0.028,1.013,-0.109,-0.549,0.549,1.251,93.333,10498.000,1.000
146098.969,145439.234,486335.531,399767.688,139595.141,164357.578,138339.688,152593.938,-0.029,1.011,-0.105,-0.549,0.641,1.373,93.333,10499.000,1.000
145736.594,145220.984,486058.563,399667.625,139290.531,164066.813,138177.594,152164.328,-0.028,1.011,-0.104,-0.549,0.671,1.373,93.333,10500.000,1.000
145152.328,144980.313,485493.688,399556.125,138547.828,163568.828,138002.000,151497.188,-0.027,1.013,-0.103,-0.580,0.671,1.404,93.333,10501.000,1.000
145377.094,145129.172,485620.813,399610.594,138663.438,163739.766,138104.547,151725.797,-0.026,1.012,-0.101,-0.519,0.732,1.404,93.333,10502.000,1.000
146043.719,145423.406,486248.188,399739.875,139494.734,164306.250,138328.422,152522.672,-0.026,1.010,-0.101,-0.397,0.763,1.404,93.333,10503.000,1.000
145865.797,145283.484,486144.125,399671.125,139421.422,164163.016,138220.875,152306.500,-0.029,1.013,-0.104,-0.458,0.763,1.312,93.333,10504.000,1.000
145201.672,144994.797,485526.219,399542.375,138628.391,163610.844,138005.125,151554.484,-0.028,1.009,-0.103,-0.519,0.885,1.343,93.333,10505.000,1.000
145291.172,145083.297,485523.531,399570.344,138577.422,163671.469,138057.609,151627.797,-0.028,1.010,-0.102,-0.580,0.885,1.312,93.333,10506.000,1.000
145942.859,145380.047,486119.969,399700.438,139359.109,164218.547,138288.016,152409.313,-0.029,1.010,-0.102,-0.488,0.946,1.282,93.333,10507.000,1.000
145963.609,145326.672,486195.000,399669.875,139527.828,164237.859,138248.047,152430.500,-0.027,1.011,-0.104,-0.458,0.977,1.190,93.333,10508.000,1.000
145262.750,145006.766,485562.156,399530.031,138733.172,163659.750,138015.766,151638.266,-0.028,1.012,-0.101,-0.458,1.068,1.099,93.333,10509.000,1.000
145217.234,145035.016,485432.719,399531.563,138521.813,163600.469,138029.000,151551.547,-0.027,1.011,-0.102,-0.427,1.160,1.160,93.333,10510.000,1.000
145825.109,145328.281,485972.469,399656.094,139216.781,164115.906,138255.469,152276.625,-0.028,1.011,-0.104,-0.427,1.221,1.099,93.333,10511.000,1.000
146040.141,145371.188,486228.250,399670.031,139613.391,164308.484,138293.297,152534.484,-0.029,1.012,-0.106,-0.488,1.312,1.129,93.333,10512.000,1.000
145342.578,145037.438,485616.094,399520.094,138853.781,163736.109,138056.094,151744.219,-0.027,1.011,-0.105,-0.519,1.343,1.007,93.333,10513.000,1.000
145150.000,145001.141,485360.563,399499.094,138483.719,163561.313,138025.875,151502.188,-0.026,1.012,-0.100,-0.458,1.373,1.129,93.333,10514.000,1.000
145694.750,145279.109,485822.156,399622.313,139060.141,164021.125,138232.578,152137.953,-0.027,1.014,-0.100,-0.397,1.282,1.190,93.333,10515.000,1.000
146090.391,145410.797,486232.813,399680.156,139645.391,164358.547,138332.625,152603.859,-0.028,1.013,-0.102,-0.427,1.434,1.129,93.333,10516.000,1.000
145470.172,145097.969,485696.625,399542.094,138993.172,163844.469,138105.891,151881.813,-0.029,1.014,-0.102,-0.397,1.434,1.129,93.333,10517.000,1.000
145131.313,144986.297,485314.875,399488.531,138473.719,163543.438,138015.688,151477.422,-0.030,1.014,-0.101,-0.427,1.343,1.099,93.333,10518.000,1.000
145572.719,145220.906,485661.781,399587.438,138894.016,163903.469,138181.078,151981.953,-0.029,1.013,-0.103,-0.519,1.312,1.129,93.333,10519.000,1.000
146092.703,145422.328,486187.469,399679.531,139620.094,164348.547,138339.156,152618.250,-0.029,1.011,-0.102,-0.580,1.282,1.099,93.333,10520.000,1.000
145553.938,145136.141,485755.813,399551.313,139117.797,163912.141,138134.328,152017.266,-0.028,1.011,-0.103,-0.488,1.312,1.068,93.333,10521.000,1.000
145134.359,144976.469,485293.406,399470.031,138488.109,163536.016,138006.563,151476.531,-0.030,1.012,-0.104,-0.488,1.282,1.129,93.333,10522.000,1.000
145461.406,145163.047,485529.438,399546.031,138757.938,163806.469,138142.813,151840.141,-0.029,1.013,-0.104,-0.549,1.343,1.190,93.333,10523.000,1.000
146078.766,145423.500,486129.531,399660.750,139577.078,164337.547,138345.406,152590.000,-0.029,1.014,-0.103,-0.366,1.404,1.282,93.333,10524.000,1.000
145682.688,145193.000,485838.438,399556.844,139274.891,164021.672,138177.781,152163.359,-0.029,1.013,-0.104,-0.397,1.373,1.282,93.333,10525.000,1.000
145146.063,144969.047,485286.719,399447.500,138550.156,163553.266,138001.734,151501.109,-0.028,1.014,-0.104,-0.458,1.404,1.343,93.333,10526.000,1.000
145354.656,145101.453,485399.969,399498.125,138656.188,163714.641,138091.938,151719.625,-0.026,1.011,-0.105,-0.458,1.282,1.343,93.333,10527.000,1.000
146013.047,145392.375,486021.000,399626.500,139480.797,164275.859,138315.547,152510.250,-0.029,1.012,-0.102,-0.397,1.282,1.343,93.333,10528.000,1.000
145800.531,145241.016,485911.844,399557.125,139410.422,164122.078,138211.391,152299.609,-0.029,1.010,-0.104,-0.397,1.251,1.373,93.333,10529.000,1.000
145174.141,144969.938,485302.719,399429.438,138621.766,163590.453,138001.016,151544.031,-0.029,1.009,-0.107,-0.244,1.160,1.495,93.333,10530.000,1.000
145264.703,145058.000,485300.031,399459.656,138567.406,163651.438,138057.875,151611.984,-0.030,1.008,-0.104,-0.275,1.190,1.404,93.333,10531.000,1.000
145924.719,145362.609,485901.750,399594.406,139352.844,164211.484,138290.969,152398.766,-0.030,1.006,-0.102,-0.244,1.160,1.434,93.333,10532.000,1.000
145922.297,145305.297,485980.594,399573.750,139529.969,164228.109,138262.172,152437.469,-0.030,1.009,-0.106,-0.092,1.007,1.312,93.333,10533.000,1.000
145247.813,144997.563,485349.469,399430.156,138731.109,163659.922,138027.750,151639.250,-0.030,1.009,-0.102,0.092,1.038,1.282,93.333,10534.000,1.000
145219.734,145029.563,485225.813,399431.875,138518.859,163612.359,138033.656,151546.891,-0.032,1.010,-0.102,0.031,0.977,1.160,93.333,10535.000,1.000
145822.609,145319.063,485762.969,399558.281,139204.438,164120.547,138247.516,152261.969,-0.030,1.010,-0.104,0.031,1.007,1.068,93.333,10536.000,1.000
146046.391,145363.500,486031.281,399573.844,139611.328,164315.188,138285.688,152531.531,-0.029,1.011,-0.109,-0.061,0.977,0.977,93.333,10537.000,1.000
145360.203,145040.031,485429.750,399434.469,138862.188,163750.859,138056.719,151751.719,-0.028,1.011,-0.109,-0.092,0.793,1.038,93.333,10538.000,1.000
145172.438,145009.000,485175.563,399419.781,138491.422,163579.109,138026.141,151507.813,-0.028,1.008,-0.110,0.000,0.763,0.977,93.333,10539.000,1.000
145709.063,145282.859,485630.656,399535.750,139058.969,164029.172,138224.625,152135.281,-0.026,1.006,-0.107,-0.031,0.793,0.977,93.333,10540.000,1.000
146113.625,145422.688,486053.188,399595.844,139660.234,164372.594,138332.813,152619.328,-0.026,1.007,-0.109,0.122,0.793,0.885,93.333,10541.000,1.000
145494.578,145109.406,485527.656,399457.063,139021.688,163862.531,138109.641,151907.563,-0.025,1.009,-0.107,0.214,0.824,0.885,93.333,10542.000,1.000
145146.609,144990.672,485138.125,399394.938,138487.922,163551.656,138014.703,151486.266,-0.024,1.010,-0.106,0.275,0.793,0.916,93.333,10543.000,1.000
145578.797,145220.188,485478.406,399485.688,138899.375,163912.406,138171.875,151977.031,-0.023,1.013,-0.109,0.244,0.885,0.977,93.333,10544.000,1.000
146118.641,145430.656,486016.094,399579.125,139642.797,164374.734,138336.828,152624.516,-0.023,1.015,-0.110,0.305,0.946,1.129,93.333,10545.000,1.000
145616.344,145157.875,485607.125,399453.063,139165.000,163960.875,138137.625,152037.828,-0.025,1.017,-0.110,0.183,0.885,1.129,93.333,10546.000,1.000
145134.891,144978.875,485119.063,399365.781,138513.594,163555.859,138000.922,151479.484,-0.024,1.018,-0.111,0.153,0.916,1.068,93.333,10547.000,1.000
145464.000,145174.938,485354.219,399442.500,138772.516,163826.313,138136.109,151837.906,-0.026,1.019,-0.110,0.061,1.038,1.038,93.333,10548.000,1.000
146094.859,145443.609,485961.000,399559.438,139588.078,164357.297,138335.672,152590.266,-0.026,1.017,-0.111,0.061,1.068,0.946,93.333,10549.000,1.000
145754.484,145237.891,485703.688,399462.531,139312.625,164079.156,138179.750,152184.359,-0.027,1.016,-0.111,-0.061,1.099,0.824,93.333,10550.000,1.000
145159.656,144991.297,485130.688,399349.156,138564.375,163581.781,138001.375,151504.875,-0.030,1.015,-0.110,-0.122,1.068,0.702,93.333,10551.000,1.000
145362.875,145125.328,485236.281,399397.000,138655.391,163738.781,138092.750,151709.438,-0.032,1.012,-0.110,-0.214,0.977,0.519,93.333,10552.000,1.000
146017.875,145411.156,485850.156,399522.969,139473.906,164291.594,138314.844,152500.234,-0.035,1.012,-0.109,-0.397,0.946,0.305,93.333,10553.000,1.000
145867.406,145283.938,485770.656,399461.813,139438.328,164169.094,138218.813,152319.547,-0.034,1.013,-0.108,-0.427,0.854,0.122,93.333,10554.000,1.000
145204.094,144998.453,485157.406,399337.438,138649.219,163620.234,138011.922,151566.828,-0.032,1.012,-0.106,-0.397,0.732,0.031,93.333,10555.000,1.000
145285.719,145086.703,485147.219,399371.438,138585.656,163673.781,138072.359,151629.063,-0.033,1.014,-0.108,-0.397,0.519,-0.122,93.333,10556.000,1.000
145942.594,145393.016,485744.813,399507.156,139365.016,164230.797,138306.703,152413.156,-0.034,1.014,-0.107,-0.549,0.519,-0.305,93.333,10557.000,1.000
145990.344,145355.719,485846.938,399489.969,139564.656,164279.609,138281.219,152471.000,-0.032,1.014,-0.109,-0.732,0.580,-0.305,93.333,10558.000,1.000
145287.156,145033.859,485212.219,399347.375,138765.359,163697.844,138046.531,151672.500,-0.032,1.015,-0.111,-0.732,0.488,-0.366,93.333,10559.000,1.000
145220.719,145052.375,485061.031,399344.781,138526.734,163621.031,138050.734,151563.703,-0.031,1.014,-0.110,-0.763,0.366,-0.275,93.333,10560.000,1.000
145824.672,145345.172,485593.906,399467.531,139209.891,164127.172,138265.313,152279.047,-0.031,1.010,-0.108,-0.885,0.305,-0.275,93.333,10561.000,1.000
146067.406,145400.422,485872.688,399485.875,139632.156,164333.438,138302.859,152561.656,-0.030,1.010,-0.107,-0.946,0.305,-0.305,93.333,10562.000,1.000
145381.922,145073.734,485272.125,399342.000,138889.641,163768.375,138065.563,151781.406,-0.027,1.010,-0.107,-0.977,0.366,-0.092,93.333,10563.000,1.000
145165.563,145021.609,484993.813,399311.344,138495.797,163568.641,138022.469,151514.797,-0.028,1.011,-0.107,-0.946,0.397,0.031,93.333,10564.000,1.000
145691.813,145287.688,485436.375,399425.156,139050.297,164005.750,138221.766,152131.875,-0.030,1.011,-0.106,-0.946,0.366,0.153,93.333,10565.000,1.000
146105.672,145430.109,485865.969,399482.656,139663.359,164357.578,138331.734,152628.984,-0.027,1.012,-0.104,-0.854,0.427,0.214,93.333,10566.000,1.000
145490.469,145116.734,485340.344,399338.438,139029.828,163849.563,138101.875,151920.438,-0.027,1.013,-0.103,-0.916,0.336,0.397,93.333,10567.000,1.000
145138.641,144999.703,484951.531,399280.313,138498.031,163542.359,138014.516,151500.219,-0.027,1.011,-0.105,-0.885,0.305,0.549,93.333,10568.000,1.000
145571.734,145233.688,485295.094,399374.375,138909.031,163899.453,138179.297,151991.250,-0.030,1.011,-0.102,-0.946,0.214,0.702,93.333,10569.000,1.000
146127.125,145454.344,485844.781,399469.594,139664.250,164372.406,138346.672,152649.375,-0.031,1.011,-0.103,-0.885,0.275,0.824,93.333,10570.000,1.000
145634.938,145182.547,485443.438,399343.000,139198.531,163968.469,138149.969,152074.219,-0.032,1.010,-0.104,-0.946,0.305,0.763,93.333,10571.000,1.000
145139.547,144990.313,484941.313,399250.906,138533.891,163547.719,138011.563,151505.141,-0.031,1.011,-0.105,-0.946,0.336,0.916,93.333,10572.000,1.000
145447.719,145171.547,485152.938,399322.688,138771.797,163802.438,138136.922,151844.969,-0.030,1.009,-0.104,-1.129,0.305,0.977,93.333,10573.000,1.000
146081.891,145441.375,485760.031,399444.813,139594.609,164345.328,138344.703,152604.125,-0.031,1.009,-0.103,-1.038,0.305,0.946,93.333,10574.000,1.000
145755.641,145238.609,485519.688,399352.750,139344.625,164083.188,138200.844,152217.891,-0.031,1.009,-0.102,-1.007,0.305,0.977,93.333,10575.000,1.000
145158.406,144989.422,484941.781,399241.156,138597.094,163582.406,138019.875,151533.844,-0.031,1.007,-0.103,-0.916,0.366,1.068,93.333,10576.000,1.000
145357.063,145125.234,485040.031,399297.469,138679.891,163737.891,138111.172,151730.891,-0.031,1.008,-0.104,-0.946,0.336,1.068,93.333,10577.000,1.000
146029.234,145426.359,485666.938,399431.938,139507.438,164308.750,138340.578,152527.953,-0.032,1.008,-0.106,-0.916,0.366,1.007,93.333,10578.000,1.000
145888.141,145297.609,485593.094,399363.031,139478.297,164193.516,138241.609,152353.156,-0.033,1.006,-0.102,-0.854,0.336,0.854,93.333,10579.000,1.000
145207.047,144998.813,484963.406,399230.781,138675.594,163629.797,138023.375,151586.672,-0.031,1.007,-0.104,-0.824,0.305,0.854,93.333,10580.000,1.000
145271.500,145076.422,484936.219,399253.688,138594.766,163668.063,138068.781,151628.969,-0.030,1.010,-0.102,-0.732,0.336,0.763,93.333,10581.000,1.000
145917.563,145375.125,485522.813,399381.438,139360.891,164215.594,138293.469,152401.266,-0.032,1.008,-0.107,-0.732,0.488,0.854,93.333,10582.000,1.000
145980.859,145344.641,485638.531,399366.406,139576.906,164277.281,138274.953,152471.891,-0.030,1.007,-0.102,-0.488,0.549,0.854,93.333,10583.000,1.000
145279.469,145021.172,485005.531,399226.688,138781.094,163694.891,138045.188,151674.750,-0.030,1.008,-0.104,-0.549,0.397,0.793,93.333,10584.000,1.000
145201.953,145034.844,484845.219,399221.938,138532.000,163609.500,138050.641,151559.766,-0.030,1.011,-0.105,-0.488,0.519,0.763,93.333,10585.000,1.000
145802.500,145328.547,485369.125,399347.281,139203.906,164112.328,138273.531,152268.938,-0.028,1.012,-0.106,-0.427,0.580,0.854,93.333,10586.000,1.000
146063.563,145401.500,485668.375,399375.719,139651.109,164345.500,138333.516,152580.172,-0.026,1.011,-0.108,-0.397,0.702,0.916,93.333,10587.000,1.000
145385.141,145075.875,485075.063,399228.719,138918.422,163793.063,138092.031,151801.344,-0.025,1.011,-0.106,-0.366,0.824,0.885,93.333,10588.000,1.000
145166.188,145023.406,484791.313,399196.719,138514.297,163586.703,138041.781,151518.109,-0.025,1.011,-0.109,-0.366,0.793,0.916,93.333,10589.000,1.000
145686.531,145285.094,485224.563,399309.094,139051.016,164016.484,138236.688,152119.813,-0.024,1.012,-0.106,-0.305,0.763,1.007,93.333,10590.000,1.000
146116.406,145436.453,485669.375,399376.688,139679.016,164387.438,138353.547,152634.078,-0.024,1.012,-0.104,-0.275,0.824,0.977,93.333,10591.000,1.000
145509.688,145127.563,485160.813,399239.281,139064.516,163892.031,138133.422,151940.547,-0.024,1.011,-0.104,-0.214,1.038,1.099,93.333,10592.000,1.000
145145.797,145004.625,484761.344,399179.188,138519.313,163571.328,138044.469,151505.578,-0.024,1.012,-0.103,-0.153,1.099,1.129,93.333,10593.000,1.000
145566.281,145232.875,485088.844,399269.938,138914.578,163920.453,138210.141,151982.844,-0.025,1.013,-0.105,-0.122,1.160,1.129,93.333,10594.000,1.000
146115.688,145447.813,485628.156,399358.281,139665.594,164391.188,138376.172,152641.859,-0.026,1.015,-0.102,-0.214,1.251,1.099,93.333,10595.000,1.000
145635.844,145183.531,485235.469,399232.469,139213.469,163995.734,138178.484,152079.406,-0.026,1.014,-0.107,-0.183,1.343,1.190,93.333,10596.000,1.000
145140.516,144993.188,484734.719,399144.969,138550.250,163574.547,138035.703,151510.500,-0.028,1.014,-0.108,-0.183,1.404,1.099,93.333,10597.000,1.000
145451.125,145179.766,484950.719,399221.500,138787.078,163828.547,138168.391,151854.625,-0.030,1.014,-0.104,-0.061,1.587,1.160,93.333,10598.000,1.000
146093.063,145455.688,485566.906,399345.688,139614.906,164377.234,138378.219,152624.688,-0.032,1.014,-0.104,-0.183,1.404,1.038,93.333,10599.000,1.000
145778.000,145253.359,485334.281,399250.000,139373.500,164117.156,138228.016,152246.953,-0.034,1.012,-0.103,-0.305,1.465,1.007,93.333,10600.000,1.000
145161.438,144994.438,484747.500,399133.344,138615.516,163603.688,138037.047,151550.641,-0.034,1.009,-0.104,-0.366,1.251,0.916,93.333,10601.000,1.000
145338.469,145121.750,484830.094,399177.500,138677.563,163741.734,138116.797,151732.500,-0.033,1.008,-0.107,-0.275,1.099,0.885,93.333,10602.000,1.000
146004.547,145421.172,485446.219,399305.969,139494.828,164299.094,138341.391,152529.031,-0.032,1.010,-0.108,-0.092,1.068,0.793,93.333,10603.000,1.000
145885.906,145309.406,485396.125,399249.469,139492.953,164203.875,138258.516,152380.969,-0.030,1.011,-0.106,-0.061,1.068,0.732,93.333,10604.000,1.000
145210.078,145014.906,484772.438,399121.719,138698.391,163651.250,138045.906,151613.234,-0.030,1.012,-0.103,0.092,1.068,0.732,93.333,10605.000,1.000
145266.594,145088.672,484734.000,399146.750,138606.922,163685.766,138092.031,151639.250,-0.029,1.012,-0.104,0.031,1.068,0.885,93.333,10606.000,1.000
145916.938,145386.922,485322.375,399276.219,139374.313,164232.672,138319.125,152409.844,-0.028,1.014,-0.106,0.031,0.977,0.763,93.333,10607.000,1.000
145996.859,145362.875,485452.469,399258.938,139606.672,164304.547,138295.438,152494.688,-0.027,1.013,-0.108,0.031,1.038,0.854,93.333,10608.000,1.000
145287.594,145034.672,484816.781,399109.906,138809.797,163722.609,138056.813,151688.422,-0.026,1.009,-0.107,0.122,1.099,0.916,93.333,10609.000,1.000
145197.656,145042.359,484646.469,399101.594,138552.484,163627.109,138058.234,151553.500,-0.026,1.010,-0.110,0.183,0.977,0.916,93.333,10610.000,1.000
145791.859,145332.219,485165.125,399226.031,139217.313,164126.984,138277.203,152257.313,-0.027,1.011,-0.108,0.214,1.038,1.099,93.333,10611.000,1.000
146067.047,145403.641,485471.500,399254.750,139671.859,164361.859,138330.125,152578.641,-0.028,1.013,-0.108,0.366,1.129,1.160,93.333,10612.000,1.000
145388.094,145073.375,484875.156,399108.219,138933.359,163795.203,138091.234,151800.359,-0.029,1.014,-0.109,0.397,1.160,1.068,93.333,10613.000,1.000
145163.953,145020.266,484585.406,399077.719,138522.531,163587.422,138046.891,151513.813,-0.028,1.013,-0.106,0.397,1.099,1.038,93.333,10614.000,1.000
145677.766,145281.078,485014.000,399188.313,139055.656,164018.453,138239.281,152111.766,-0.031,1.013,-0.108,0.397,1.007,1.038,93.333,10615.000,1.000
146112.281,145436.016,485465.063,399254.219,139691.172,164393.953,138361.063,152633.984,-0.033,1.012,-0.108,0.275,1.007,1.099,93.333,10616.000,1.000
145513.625,145128.906,484956.625,399112.938,139078.469,163900.344,138136.297,151941.625,-0.034,1.011,-0.108,0.214,0.854,1.160,93.333,10617.000,1.000
145135.516,144996.938,484543.656,399045.094,138517.344,163568.109,138031.234,151490.750,-0.031,1.012,-0.108,0.214,0.793,1.068,93.333,10618.000,1.000
145546.781,145219.203,484864.438,399136.375,138898.750,163909.813,138191.453,151957.000,-0.030,1.011,-0.107,0.214,0.732,1.038,93.333,10619.000,1.000
146108.984,145443.797,485417.688,399235.531,139658.984,164383.859,138360.969,152628.359,-0.029,1.012,-0.108,0.305,0.610,0.977,93.333,10620.000,1.000
145641.297,145188.438,485039.688,399119.906,139221.516,163999.938,138172.328,152079.313,-0.029,1.013,-0.106,0.275,0.641,0.885,93.333,10621.000,1.000
145139.000,144995.500,484533.813,399034.906,138550.063,163578.391,138028.641,151499.328,-0.030,1.013,-0.106,0.153,0.610,1.007,93.333,10622.000,1.000
145442.188,145175.297,484738.094,399109.906,138774.563,163821.844,138150.688,151824.953,-0.031,1.014,-0.110,0.000,0.488,0.885,93.333,10623.000,1.000
146080.547,145444.953,485345.719,399229.344,139594.344,164351.844,138352.563,152585.891,-0.029,1.012,-0.110,-0.031,0.488,0.824,93.333,10624.000,1.000
145779.250,145254.609,485126.313,399143.438,139371.984,164104.641,138211.844,152227.281,-0.028,1.012,-0.110,-0.153,0.519,0.885,93.333,10625.000,1.000
145162.875,144995.141,484535.406,399027.031,138608.891,163592.969,138021.938,151528.391,-0.026,1.012,-0.108,-0.214,0.336,0.854,93.333,10626.000,1.000
145334.625,145117.359,484606.063,399070.844,138656.016,163717.953,138102.141,151697.813,-0.027,1.014,-0.108,-0.214,0.275,0.916,93.333,10627.000,1.000
145997.578,145412.047,485221.000,399201.906,139469.266,164270.672,138331.281,152496.219,-0.028,1.013,-0.107,-0.183,0.458,0.824,93.333,10628.000,1.000
145898.781,145310.125,485191.313,399154.156,139491.344,164193.953,138253.859,152372.563,-0.029,1.015,-0.108,-0.275,0.488,0.946,93.333,10629.000,1.000
145226.172,145019.203,484572.531,399027.281,138698.484,163641.516,138036.688,151606.078,-0.028,1.013,-0.103,-0.214,0.488,0.977,93.333,10630.000,1.000
145265.609,145084.547,484518.438,399046.438,138580.641,163655.547,138074.953,151616.453,-0.026,1.015,-0.109,-0.366,0.610,0.946,93.333,10631.000,1.000
145910.313,145383.891,485099.563,399176.500,139334.250,164189.844,138303.484,152384.719,-0.027,1.012,-0.105,-0.366,0.549,1.007,93.333,10632.000,1.000
146008.391,145370.563,485248.781,399166.313,139589.875,164279.609,138293.297,152497.375,-0.026,1.012,-0.106,-0.488,0.641,0.977,93.333,10633.000,1.000
145310.484,145047.094,484626.438,399026.313,138808.359,163714.641,138060.734,151703.172,-0.027,1.013,-0.109,-0.519,0.610,0.916,93.333,10634.000,1.000
145212.859,145048.875,484447.344,399014.594,138535.047,163610.391,138054.031,151553.063,-0.027,1.012,-0.107,-0.641,0.702,0.854,93.333,10635.000,1.000
145803.922,145338.656,484961.531,399135.656,139190.125,164103.297,138267.547,152245.875,-0.027,1.012,-0.106,-0.702,0.580,0.854,93.333,10636.000,1.000
146085.906,145415.000,485275.438,399164.344,139660.688,164350.156,138325.563,152579.813,-0.027,1.011,-0.106,-0.793,0.732,0.977,93.333,10637.000,1.000
145407.141,145083.750,484682.406,399010.938,138931.203,163791.891,138086.219,151803.672,-0.028,1.011,-0.109,-0.793,0.702,0.885,93.333,10638.000,1.000
145170.391,145025.359,484391.031,398979.281,138513.859,163579.641,138040.266,151506.922,-0.026,1.010,-0.108,-0.824,0.610,0.854,93.333,10639.000,1.000
145675.094,145281.969,484813.750,399087.656,139033.938,164001.906,138227.031,152093.797,-0.027,1.010,-0.107,-0.885,0.702,0.793,93.333,10640.000,1.000
146127.047,145447.281,485276.781,399161.406,139683.484,164391.188,138357.391,152633.000,-0.030,1.010,-0.107,-0.793,0.763,0.732,93.333,10641.000,1.000
145533.469,145140.516,484776.719,399022.563,139084.813,163904.641,138139.328,151951.813,-0.029,1.010,-0.106,-0.885,0.824,0.549,93.333,10642.000,1.000
145145.625,145003.469,484355.531,398954.344,138517.609,163566.859,138036.422,151492.359,-0.029,1.010,-0.106,-0.916,0.702,0.519,93.333,10643.000,1.000
145549.656,145220.453,484666.125,399041.344,138888.563,163902.938,138187.250,151950.109,-0.027,1.012,-0.106,-0.916,0.549,0.488,93.333,10644.000,1.000
146110.141,145442.094,485216.969,399136.281,139648.703,164381.797,138354.984,152626.844,-0.028,1.011,-0.104,-1.007,0.488,0.488,93.333,10645.000,1.000
145648.984,145185.219,484846.719,399016.750,139223.656,164000.125,138165.531,152086.547,-0.030,1.010,-0.103,-1.068,0.519,0.458,93.333,10646.000,1.000
145136.047,144989.156,484338.469,398930.031,138547.828,163563.281,138021.219,151496.016,-0.029,1.011,-0.106,-0.977,0.610,0.427,93.333,10647.000,1.000
145427.781,145163.953,484530.688,398998.594,138751.047,163792.516,138136.734,151808.313,-0.027,1.012,-0.101,-0.977,0.549,0.427,93.333,10648.000,1.000
146081.703,145446.469,485152.938,399128.500,139581.109,164346.938,138354.531,152590.094,-0.029,1.010,-0.103,-0.946,0.549,0.366,93.333,10649.000,1.000
145798.734,145263.547,484952.844,399045.719,139377.797,164118.313,138224.797,152252.844,-0.030,1.011,-0.102,-0.916,0.488,0.275,93.333,10650.000,1.000
145173.875,144998.813,484361.063,398926.625,138610.141,163596.719,138035.000,151547.875,-0.030,1.011,-0.106,-0.977,0.519,0.244,93.333,10651.000,1.000
145339.188,145121.563,484429.656,398971.063,138651.719,163719.922,138112.781,151708.984,-0.028,1.011,-0.102,-1.007,0.519,0.366,93.333,10652.000,1.000
146011.250,145427.781,485057.094,399112.219,139480.344,164290.516,138350.063,152514.719,-0.028,1.014,-0.098,-1.007,0.549,0.366,93.333,10653.000,1.000
145875.891,145309.859,485013.750,399061.625,139502.781,164197.078,138273.625,152392.766,-0.028,1.014,-0.100,-0.946,0.580,0.214,93.333,10654.000,1.000
145229.844,145023.578,484389.688,398924.219,138702.063,163648.219,138052.516,151614.031,-0.030,1.013,-0.102,-0.946,0.549,0.336,93.333,10655.000,1.000
145275.703,145088.047,484337.563,398940.656,138585.031,163666.813,138086.844,151619.672,-0.028,1.010,-0.103,-0.916,0.641,0.305,93.333,10656.000,1.000
145922.563,145391.484,484920.125,399075.031,139342.219,164214.516,138320.297,152389.375,-0.029,1.009,-0.101,-0.916,0.580,0.336,93.333,10657.000,1.000
145988.813,145361.813,485059.063,399066.281,139600.859,164285.953,138314.125,152509.000,-0.030,1.008,-0.103,-0.793,0.519,0.336,93.333,10658.000,1.000
145305.484,145045.578,484430.000,398919.469,138810.422,163711.063,138074.875,151706.922,-0.029,1.009,-0.102,-0.671,0.641,0.458,93.333,10659.000,1.000
145216.516,145050.219,484252.438,398904.375,138532.625,163611.203,138055.641,151551.453,-0.029,1.010,-0.101,-0.671,0.549,0.549,93.333,10660.000,1.000
145800.438,145339.281,484763.688,399026.750,139183.969,164103.922,138271.828,152242.656,-0.030,1.009,-0.101,-0.671,0.610,0.488,93.333,10661.000,1.000
146070.719,145413.219,485083.219,399059.938,139664.438,164346.578,138335.578,152594.391,-0.031,1.011,-0.104,-0.458,0.519,0.549,93.333,10662.000,1.000
145410.438,145100.016,484507.969,398919.656,138954.453,163805.844,138105.172,151833.078,-0.031,1.009,-0.103,-0.366,0.549,0.641,93.333,10663.000,1.000
145195.063,145048.344,484214.188,398885.844,138528.250,163598.422,138053.141,151523.563,-0.030,1.011,-0.105,-0.244,0.519,0.580,93.333,10664.000,1.000
145692.438,145300.469,484626.875,398996.531,139040.906,164011.828,138242.500,152101.391,-0.031,1.011,-0.101,-0.244,0.488,0.519,93.333,10665.000,1.000
146124.719,145448.625,485083.031,399064.938,139690.188,164387.516,138361.781,152640.344,-0.031,1.012,-0.101,-0.183,0.397,0.519,93.333,10666.000,1.000
145525.422,145140.172,484582.531,398928.219,139096.609,163899.891,138138.078,151960.750,-0.030,1.011,-0.103,-0.214,0.458,0.549,93.333,10667.000,1.000
145172.891,145014.453,484173.125,398860.469,138528.516,163574.984,138029.094,151494.672,-0.029,1.011,-0.103,-0.183,0.336,0.458,93.333,10668.000,1.000
145558.500,145228.766,484475.063,398948.250,138882.656,163897.297,138186.813,151941.625,-0.030,1.010,-0.104,-0.122,0.397,0.549,93.333,10669.000,1.000
146121.672,145458.188,485038.156,399051.063,139656.391,164385.203,138366.516,152634.609,-0.033,1.010,-0.106,-0.061,0.549,0.488,93.333,10670.000,1.000
145643.172,145197.469,484664.000,398930.750,139238.047,163998.156,138174.828,152105.500,-0.029,1.012,-0.106,-0.031,0.610,0.519,93.333,10671.000,1.000
145173.688,145014.375,484159.719,398838.750,138564.016,163583.578,138028.563,151509.609,-0.031,1.011,-0.107,0.061,0.641,0.458,93.333,10672.000,1.000
145451.844,145178.438,484341.688,398902.313,138759.016,163806.281,138144.688,151810.016,-0.032,1.012,-0.107,0.000,0.641,0.641,93.333,10673.000,1.000
146100.031,145461.406,484967.250,399031.313,139595.688,164366.688,138363.203,152594.297,-0.031,1.011,-0.108,0.092,0.610,0.549,93.333,10674.000,1.000
145826.906,145282.406,484778.688,398947.719,139415.891,164151.125,138232.938,152271.172,-0.031,1.010,-0.105,0.092,0.702,0.488,93.333,10675.000,1.000
145190.766,145007.219,484174.219,398820.938,138641.000,163619.063,138032.125,151550.016,-0.031,1.007,-0.106,0.214,0.610,0.580,93.333,10676.000,1.000
145339.359,145118.625,484228.125,398857.344,138667.719,163732.891,138104.375,151696.734,-0.032,1.010,-0.107,0.305,0.610,0.580,93.333,10677.000,1.000
146004.375,145416.797,484846.094,398988.125,139479.625,164297.313,138332.359,152493.797,-0.031,1.011,-0.106,0.305,0.641,0.641,93.333,10678.000,1.000
145924.984,145316.563,484835.188,398939.406,139528.453,164234.813,138260.031,152395.813,-0.031,1.011,-0.105,0.275,0.641,0.580,93.333,10679.000,1.000
145242.531,145015.703,484210.781,398808.688,138733.969,163671.469,138047.063,151622.000,-0.032,1.010,-0.104,0.244,0.671,0.671,93.333,10680.000,1.000
145268.828,145081.875,484149.906,398829.000,138606.484,163677.547,138083.359,151617.703,-0.032,1.011,-0.106,0.336,0.671,0.641,93.333,10681.000,1.000
145905.313,145385.500,484726.031,398961.938,139353.828,164217.828,138312.953,152380.344,-0.032,1.011,-0.106,0.366,0.732,0.702,93.333,10682.000,1.000
146027.891,145384.156,484897.250,398954.875,139639.313,164324.578,138315.281,152523.656,-0.032,1.012,-0.108,0.305,0.702,0.732,93.333,10683.000,1.000
145326.938,145059.344,484273.469,398808.438,138853.609,163742.094,138078.094,151725.609,-0.031,1.013,-0.107,0.305,0.641,0.732,93.333,10684.000,1.000
145201.766,145048.875,484072.125,398788.313,138552.297,163617.281,138059.578,151551.000,-0.031,1.013,-0.101,0.305,0.671,0.671,93.333,10685.000,1.000
145777.906,145335.156,484575.469,398910.156,139191.563,164107.766,138275.766,152231.750,-0.031,1.013,-0.104,0.275,0.702,0.854,93.333,10686.000,1.000
146089.313,145427.703,484917.813,398949.250,139693.406,164378.672,138351.766,152603.063,-0.030,1.013,-0.108,0.183,0.793,0.824,93.333,10687.000,1.000
145428.688,145103.859,484346.781,398806.094,138987.094,163833.563,138114.203,151843.719,-0.031,1.017,-0.107,0.214,0.793,0.946,93.333,10688.000,1.000
145163.766,145026.344,484029.094,398763.281,138538.891,163592.688,138046.438,151514.797,-0.031,1.015,-0.108,0.214,0.824,1.038,93.333,10689.000,1.000
145647.813,145272.938,484428.219,398869.031,139034.656,163997.797,138229.719,152082.891,-0.030,1.013,-0.103,0.183,1.007,1.038,93.333,10690.000,1.000
146112.203,145443.797,484902.875,398947.531,139703.594,164398.969,138363.203,152646.422,-0.031,1.011,-0.104,0.031,0.946,1.129,93.333,10691.000,1.000
145536.953,145143.109,484418.906,398810.219,139126.828,163924.125,138141.297,151979.891,-0.030,1.012,-0.108,-0.061,0.885,1.160,93.333,10692.000,1.000
145132.828,144996.578,483985.281,398737.625,138541.297,163570.703,138024.984,151498.172,-0.030,1.010,-0.106,-0.092,0.885,1.190,93.333,10693.000,1.000
145519.344,145208.734,484276.844,398823.438,138883.828,163884.609,138171.156,151933.391,-0.031,1.010,-0.103,-0.061,0.916,1.221,93.333,10694.000,1.000
146112.109,145454.438,484854.875,398936.531,139671.234,164386.188,138359.984,152640.609,-0.033,1.010,-0.102,-0.061,0.885,1.221,93.333,10695.000,1.000
145678.313,145206.328,484508.781,398822.094,139276.672,164027.656,138177.500,152126.781,-0.031,1.011,-0.104,-0.183,0.885,1.160,93.333,10696.000,1.000
145147.234,144996.219,483979.500,398728.688,138580.281,163576.594,138023.281,151515.234,-0.031,1.013,-0.106,-0.153,0.824,1.190,93.333,10697.000,1.000
145419.828,145162.609,484151.063,398794.563,138765.000,163792.156,138133.781,151806.172,-0.032,1.013,-0.108,-0.153,0.885,1.312,93.333,10698.000,1.000
146077.422,145450.938,484772.781,398921.969,139597.828,164351.406,138354.094,152586.969,-0.031,1.012,-0.109,-0.183,0.732,1.282,93.333,10699.000,1.000
145827.266,145282.328,484601.500,398841.250,139432.156,164147.281,138226.688,152278.234,-0.031,1.012,-0.109,-0.092,0.854,1.404,93.333,10700.000,1.000
145191.484,145011.516,484004.594,398717.844,138660.031,163616.469,138032.125,151558.156,-0.031,1.013,-0.107,-0.031,0.793,1.404,93.333,10701.000,1.000
145337.391,145123.359,484056.906,398754.344,138680.156,163721.797,138103.297,151693.781,-0.028,1.012,-0.104,-0.183,0.824,1.434,93.333,10702.000,1.000
146002.578,145426.625,484675.156,398887.656,139491.969,164288.016,138334.328,152492.813,-0.027,1.013,-0.107,-0.244,0.946,1.495,93.333,10703.000,1.000
145940.266,145339.813,484680.063,398843.563,139562.875,164242.953,138273.359,152416.641,-0.027,1.013,-0.107,-0.153,1.038,1.495,93.333,10704.000,1.000
145253.797,145032.703,484051.531,398708.031,138766.438,163672.359,138055.109,151636.125,-0.028,1.012,-0.106,-0.183,1.160,1.465,93.333,10705.000,1.000
145262.109,145080.984,483969.031,398717.406,138617.484,163660.281,138083.266,151613.953,-0.030,1.011,-0.106,-0.153,1.007,1.404,93.333,10706.000,1.000
145893.859,145380.141,484536.656,398844.188,139356.250,164199.406,138310.641,152370.953,-0.030,1.011,-0.107,-0.153,1.038,1.404,93.333,10707.000,1.000
146025.109,145382.281,484717.906,398837.313,139655.766,164318.672,138315.641,152528.938,-0.030,1.009,-0.107,-0.061,1.038,1.404,93.333,10708.000,1.000
145322.828,145052.188,484090.625,398689.500,138871.938,163734.672,138074.875,151728.203,-0.029,1.010,-0.109,0.000,1.038,1.373,93.333,10709.000,1.000
145197.203,145043.688,483887.500,398677.813,138566.156,163608.422,138059.484,151547.250,-0.027,1.009,-0.109,0.122,0.916,1.251,93.333,10710.000,1.000
145768.422,145325.859,484382.969,398802.438,139192.641,164092.750,138271.203,152220.391,-0.027,1.009,-0.107,0.061,0.916,1.251,93.333,10711.000,1.000
146100.031,145428.859,484740.156,398850.531,139714.594,164377.516,138350.953,152610.656,-0.027,1.011,-0.109,0.214,0.977,1.221,93.333,10712.000,1.000
145445.766,145109.406,484171.719,398708.656,139019.984,163837.938,138118.594,151857.844,-0.029,1.010,-0.108,0.153,1.099,1.129,93.333,10713.000,1.000
145175.484,145036.281,483852.094,398675.031,138570.094,163598.766,138059.047,151525.250,-0.029,1.010,-0.112,0.305,1.160,1.160,93.333,10714.000,1.000
145659.359,145290.375,484251.000,398785.625,139059.953,164006.828,138244.469,152089.953,-0.027,1.009,-0.112,0.336,1.099,1.190,93.333,10715.000,1.000
146123.906,145458.719,484722.813,398857.781,139727.734,164406.203,138376.531,152656.156,-0.027,1.009,-0.114,0.427,1.099,1.160,93.333,10716.000,1.000
145553.047,145160.188,484243.156,398719.906,139160.094,163937.172,138159.266,151998.219,-0.027,1.005,-0.112,0.488,1.068,1.038,93.333,10717.000,1.000
145145.891,145016.422,483808.281,398652.938,138572.063,163582.859,138048.406,151514.078,-0.026,1.007,-0.111,0.671,1.068,1.129,93.333,10718.000,1.000
145524.703,145222.859,484092.406,398736.281,138903.844,163892.828,138195.563,151940.016,-0.024,1.010,-0.109,0.671,1.068,1.038,93.333,10719.000,1.000
146115.688,145461.500,484669.094,398839.719,139688.672,164393.328,138377.250,152649.094,-0.024,1.017,-0.109,0.702,1.038,1.068,93.333,10720.000,1.000
145694.844,145221.250,484338.281,398730.375,139314.234,164051.703,138202.719,152155.313,-0.025,1.018,-0.109,0.702,1.129,1.068,93.333,10721.000,1.000
145155.359,145007.938,483804.688,398633.813,138611.938,163595.375,138046.609,151537.063,-0.023,1.017,-0.110,0.549,1.160,1.099,93.333,10722.000,1.000
145416.250,145171.641,483963.406,398693.719,138778.766,163800.469,138153.719,151812.438,-0.023,1.020,-0.112,0.549,1.160,1.099,93.333,10723.000,1.000
146064.547,145454.703,484581.656,398818.531,139607.750,164355.688,138369.641,152595.094,-0.025,1.019,-0.112,0.458,1.282,0.977,93.333,10724.000,1.000
145819.750,145289.563,484416.313,398741.625,139452.000,164162.484,138244.656,152300.594,-0.026,1.022,-0.114,0.214,1.221,0.916,93.333,10725.000,1.000
145189.969,145025.547,483821.063,398625.844,138681.938,163637.844,138052.250,151580.859,-0.026,1.021,-0.113,0.092,1.312,0.824,93.333,10726.000,1.000
145329.078,145134.266,483861.125,398660.719,138685.969,163734.406,138118.859,151704.969,-0.029,1.020,-0.114,-0.092,1.190,0.702,93.333,10727.000,1.000
145996.063,145437.531,484479.531,398792.156,139496.438,164299.359,138350.328,152501.672,-0.029,1.020,-0.111,-0.183,1.251,0.671,93.333,10728.000,1.000
