EEG 1,EEG 2,EEG 3,EEG 4,EEG 5,EEG 6,EEG 7,EEG 8,Accelerometer X,Accelerometer Y,Accelerometer Z,Gyroscope X,Gyroscope Y,Gyroscope Z,Battery Level,Counter,Validation Indicator
-11.148,-11.294,-11.225,-11.094,-11.100,-11.537,-11.081,-11.188,-0.007,0.984,-0.044,-0.183,-0.458,0.458,26.667,2697.000,1.000
-12.304,-12.149,-11.890,-12.194,-11.992,-12.313,-12.080,-12.237,-0.008,0.985,-0.048,-0.153,-0.458,0.458,26.667,2698.000,1.000
-5.114,-4.764,-4.457,-4.988,-4.828,-4.825,-4.847,-4.852,-0.009,0.984,-0.048,-0.122,-0.366,0.549,26.667,2699.000,1.000
-1.220,-0.849,-0.671,-1.001,-1.011,-0.944,-0.939,-0.785,-0.007,0.986,-0.049,-0.031,-0.488,0.366,26.667,2700.000,1.000
-6.642,-6.405,-6.429,-6.376,-6.446,-6.518,-6.393,-6.308,-0.006,0.986,-0.048,-0.061,-0.519,0.244,26.667,2701.000,1.000
-10.500,-10.360,-10.525,-10.363,-10.391,-10.374,-10.294,-10.538,-0.007,0.986,-0.049,-0.153,-0.488,0.214,26.667,2702.000,1.000
-5.744,-5.550,-5.772,-5.777,-5.814,-5.500,-5.533,-6.083,-0.007,0.986,-0.046,-0.092,-0.458,0.275,26.667,2703.000,1.000
-2.045,-1.818,-2.054,-2.137,-2.243,-1.824,-1.870,-2.405,-0.005,0.987,-0.047,-0.092,-0.488,0.244,26.667,2704.000,1.000
-6.629,-6.482,-6.706,-6.689,-6.797,-6.552,-6.581,-6.828,-0.007,0.985,-0.045,-0.031,-0.397,0.122,26.667,2705.000,1.000
-10.499,-10.504,-10.619,-10.535,-10.580,-10.533,-10.635,-10.527,-0.007,0.986,-0.052,-0.092,-0.519,0.000,26.667,2706.000,1.000
-6.173,-6.425,-6.280,-6.276,-6.282,-6.342,-6.492,-6.115,-0.008,0.987,-0.050,-0.061,-0.488,0.092,26.667,2707.000,1.000
-2.467,-2.937,-2.535,-2.656,-2.630,-2.750,-2.803,-2.389,-0.008,0.986,-0.051,-0.061,-0.549,0.092,26.667,2708.000,1.000
-8.139,-8.587,-8.181,-8.298,-8.216,-8.410,-8.340,-8.051,-0.011,0.985,-0.049,0.031,-0.519,0.122,26.667,2709.000,1.000
-15.217,-15.421,-15.269,-15.235,-15.134,-15.473,-15.395,-15.077,-0.010,0.989,-0.054,-0.031,-0.427,0.153,26.667,2710.000,1.000
-13.145,-12.990,-13.118,-12.991,-12.972,-13.385,-13.358,-12.881,-0.011,0.986,-0.051,-0.122,-0.427,0.183,26.667,2711.000,1.000
-7.515,-7.060,-7.306,-7.271,-7.405,-7.632,-7.581,-7.175,-0.010,0.986,-0.054,-0.031,-0.427,0.153,26.667,2712.000,1.000
-9.002,-8.554,-8.708,-8.803,-9.079,-9.062,-8.904,-8.796,-0.012,0.986,-0.050,-0.061,-0.397,0.305,26.667,2713.000,1.000
-13.816,-13.596,-13.545,-13.588,-13.950,-13.994,-13.700,-13.779,-0.011,0.987,-0.051,-0.153,-0.458,0.305,26.667,2714.000,1.000
-11.984,-11.890,-11.697,-11.547,-11.880,-12.194,-11.816,-11.827,-0.010,0.988,-0.052,-0.214,-0.488,0.305,26.667,2715.000,1.000
-6.760,-6.669,-6.457,-6.259,-6.384,-6.774,-6.495,-6.354,-0.010,0.985,-0.053,-0.275,-0.519,0.275,26.667,2716.000,1.000
-8.576,-8.497,-8.342,-8.294,-8.236,-8.381,-8.361,-8.190,-0.009,0.988,-0.052,-0.183,-0.397,0.366,26.667,2717.000,1.000
-15.250,-15.096,-15.068,-15.100,-15.182,-15.019,-15.138,-15.064,-0.007,0.985,-0.053,-0.122,-0.488,0.336,26.667,2718.000,1.000
-14.990,-14.652,-14.813,-14.742,-15.052,-14.817,-14.876,-14.878,-0.008,0.987,-0.052,-0.244,-0.549,0.244,26.667,2719.000,1.000
-7.315,-6.952,-7.144,-7.035,-7.196,-7.151,-7.242,-7.205,-0.009,0.987,-0.052,-0.336,-0.549,0.153,26.667,2720.000,1.000
-4.408,-4.251,-4.133,-4.202,-4.009,-4.233,-4.466,-4.307,-0.009,0.987,-0.051,-0.336,-0.458,0.183,26.667,2721.000,1.000
-9.258,-9.252,-8.771,-8.986,-8.747,-9.180,-9.307,-9.103,-0.008,0.985,-0.050,-0.214,-0.488,0.275,26.667,2722.000,1.000
-10.227,-10.194,-9.722,-9.789,-9.827,-10.351,-10.138,-10.126,-0.007,0.987,-0.047,-0.153,-0.458,0.275,26.667,2723.000,1.000
-2.895,-2.842,-2.753,-2.486,-2.776,-3.191,-2.805,-3.098,-0.009,0.983,-0.050,-0.183,-0.458,0.305,26.667,2724.000,1.000
1.737,1.715,1.360,1.869,1.532,1.378,1.645,1.323,-0.007,0.986,-0.046,-0.305,-0.458,0.336,26.667,2725.000,1.000
-2.000,-2.076,-2.666,-2.134,-2.342,-2.331,-2.284,-2.251,-0.007,0.985,-0.048,-0.275,-0.427,0.397,26.667,2726.000,1.000
-4.332,-4.395,-4.880,-4.574,-4.564,-4.581,-4.743,-4.367,-0.007,0.988,-0.048,-0.244,-0.458,0.275,26.667,2727.000,1.000
0.841,0.762,0.693,0.584,0.754,0.709,0.384,0.756,-0.008,0.986,-0.046,-0.153,-0.488,0.275,26.667,2728.000,1.000
4.303,4.152,4.580,4.123,4.245,4.304,3.956,4.123,-0.007,0.987,-0.048,-0.061,-0.458,0.214,26.667,2729.000,1.000
-1.019,-1.205,-0.500,-1.059,-1.082,-0.903,-1.147,-1.131,-0.007,0.986,-0.048,-0.122,-0.427,0.244,26.667,2730.000,1.000
-6.800,-6.938,-6.298,-6.858,-6.774,-6.585,-6.761,-6.875,-0.008,0.987,-0.047,-0.092,-0.427,0.183,26.667,2731.000,1.000
-4.679,-4.771,-4.390,-4.978,-4.599,-4.405,-4.608,-4.841,-0.007,0.985,-0.045,-0.031,-0.427,0.122,26.667,2732.000,1.000
-1.402,-1.583,-1.371,-1.909,-1.511,-1.197,-1.444,-1.536,-0.007,0.988,-0.048,-0.031,-0.519,0.061,26.667,2733.000,1.000
-6.161,-6.552,-6.278,-6.673,-6.526,-6.056,-6.353,-6.091,-0.010,0.985,-0.046,0.000,-0.519,0.031,26.667,2734.000,1.000
-13.537,-14.010,-13.635,-13.928,-13.917,-13.389,-13.707,-13.377,-0.010,0.987,-0.047,-0.061,-0.549,0.092,26.667,2735.000,1.000
-13.525,-13.785,-13.500,-13.721,-13.715,-13.320,-13.528,-13.499,-0.009,0.987,-0.048,-0.061,-0.488,0.153,26.667,2736.000,1.000
-10.168,-10.173,-10.082,-10.186,-10.221,-10.113,-10.163,-10.290,-0.010,0.987,-0.049,-0.061,-0.397,0.153,26.667,2737.000,1.000
-14.033,-14.090,-14.031,-14.130,-14.166,-14.225,-14.250,-14.254,-0.008,0.987,-0.047,0.000,-0.458,0.153,26.667,2738.000,1.000
-22.418,-22.750,-22.449,-22.741,-22.704,-22.651,-22.754,-22.699,-0.007,0.986,-0.051,-0.122,-0.458,0.092,26.667,2739.000,1.000
-23.777,-24.224,-23.612,-24.017,-23.984,-23.744,-23.926,-23.877,-0.008,0.986,-0.051,-0.122,-0.458,0.153,26.667,2740.000,1.000
-18.358,-18.620,-17.988,-18.269,-18.330,-18.020,-18.267,-18.034,-0.010,0.986,-0.052,-0.214,-0.488,0.153,26.667,2741.000,1.000
-18.078,-18.110,-17.769,-17.894,-18.031,-17.719,-17.987,-17.517,-0.010,0.987,-0.054,-0.092,-0.458,0.305,26.667,2742.000,1.000
-25.369,-25.331,-25.226,-25.288,-25.451,-25.169,-25.392,-24.956,-0.010,0.985,-0.050,-0.061,-0.427,0.305,26.667,2743.000,1.000
-28.658,-28.632,-28.548,-28.554,-28.631,-28.506,-28.647,-28.476,-0.010,0.987,-0.053,-0.153,-0.488,0.183,26.667,2744.000,1.000
-23.578,-23.637,-23.504,-23.459,-23.265,-23.451,-23.471,-23.506,-0.009,0.986,-0.052,-0.122,-0.458,0.305,26.667,2745.000,1.000
-20.969,-21.170,-20.997,-20.994,-20.525,-20.931,-20.807,-20.964,-0.008,0.987,-0.051,-0.122,-0.458,0.214,26.667,2746.000,1.000
-25.820,-25.993,-25.862,-25.887,-25.481,-25.713,-25.552,-25.866,-0.008,0.988,-0.050,-0.122,-0.519,0.183,26.667,2747.000,1.000
-27.568,-27.579,-27.691,-27.506,-27.539,-27.301,-27.256,-27.640,-0.007,0.989,-0.051,-0.183,-0.427,0.275,26.667,2748.000,1.000
-20.872,-20.901,-21.291,-20.823,-21.232,-20.640,-20.753,-21.012,-0.008,0.986,-0.049,-0.244,-0.458,0.244,26.667,2749.000,1.000
-15.952,-16.142,-16.518,-16.133,-16.463,-15.866,-16.071,-16.264,-0.007,0.986,-0.049,-0.214,-0.397,0.305,26.667,2750.000,1.000
-18.572,-18.760,-18.915,-18.892,-18.857,-18.598,-18.679,-19.065,-0.008,0.986,-0.048,-0.214,-0.488,0.244,26.667,2751.000,1.000
-18.987,-19.020,-19.098,-19.241,-19.019,-19.173,-18.955,-19.450,-0.008,0.987,-0.050,-0.244,-0.458,0.153,26.667,2752.000,1.000
-10.503,-10.493,-10.629,-10.710,-10.620,-10.833,-10.532,-10.741,-0.009,0.984,-0.047,-0.244,-0.427,0.153,26.667,2753.000,1.000
-2.157,-2.195,-2.336,-2.313,-2.454,-2.409,-2.352,-2.210,-0.009,0.987,-0.049,-0.214,-0.458,0.122,26.667,2754.000,1.000
-2.185,-2.180,-2.284,-2.117,-2.373,-2.235,-2.294,-2.148,-0.009,0.985,-0.050,-0.183,-0.458,0.153,26.667,2755.000,1.000
-2.893,-2.877,-2.905,-2.650,-2.891,-2.904,-2.709,-2.804,-0.007,0.985,-0.048,-0.122,-0.366,0.183,26.667,2756.000,1.000
5.272,5.183,5.242,5.438,5.230,5.156,5.625,5.318,-0.009,0.984,-0.048,-0.275,-0.397,0.061,26.667,2757.000,1.000
16.091,15.968,15.981,16.079,15.902,15.932,16.371,16.000,-0.010,0.986,-0.046,-0.153,-0.458,0.122,26.667,2758.000,1.000
18.625,18.498,18.415,18.438,18.360,18.492,18.717,18.473,-0.011,0.985,-0.045,-0.122,-0.549,0.122,26.667,2759.000,1.000
16.872,16.593,16.622,16.588,16.598,16.791,16.819,16.842,-0.010,0.990,-0.048,-0.183,-0.519,0.153,26.667,2760.000,1.000
22.040,21.704,21.921,21.967,21.896,22.095,22.039,22.174,-0.010,0.986,-0.046,-0.153,-0.519,0.183,26.667,2761.000,1.000
31.543,31.471,31.605,31.877,31.641,31.699,31.748,31.630,-0.008,0.984,-0.044,-0.122,-0.519,0.153,26.667,2762.000,1.000
33.591,33.758,33.625,33.953,33.722,33.632,33.863,33.407,-0.009,0.987,-0.044,-0.153,-0.488,0.153,26.667,2763.000,1.000
28.863,28.930,28.737,28.724,28.731,28.754,28.983,28.489,-0.006,0.986,-0.045,-0.122,-0.458,0.244,26.667,2764.000,1.000
29.206,29.122,29.129,28.727,28.930,29.241,29.244,29.002,-0.008,0.985,-0.046,-0.061,-0.458,0.244,26.667,2765.000,1.000
36.233,36.264,36.406,36.039,36.173,36.570,36.361,36.410,-0.010,0.986,-0.048,-0.031,-0.427,0.305,26.667,2766.000,1.000
38.577,38.765,38.771,38.764,38.701,38.886,38.698,38.827,-0.010,0.987,-0.052,-0.031,-0.397,0.214,26.667,2767.000,1.000
32.441,32.511,32.271,32.496,32.364,32.308,32.291,32.288,-0.008,0.986,-0.050,-0.122,-0.366,0.153,26.667,2768.000,1.000
28.263,28.069,27.784,27.945,27.940,27.791,27.836,27.803,-0.008,0.986,-0.052,-0.122,-0.336,0.244,26.667,2769.000,1.000
31.161,30.944,30.768,30.776,30.982,30.821,30.809,30.953,-0.009,0.986,-0.049,-0.183,-0.458,0.336,26.667,2770.000,1.000
31.791,31.941,31.629,31.585,31.944,31.794,31.806,32.014,-0.009,0.986,-0.050,-0.214,-0.458,0.244,26.667,2771.000,1.000
24.621,25.207,24.553,24.552,24.944,24.819,24.924,24.925,-0.010,0.985,-0.046,-0.244,-0.519,0.275,26.667,2772.000,1.000
18.636,19.309,18.561,18.676,19.008,18.890,19.004,18.755,-0.011,0.987,-0.050,-0.244,-0.519,0.275,26.667,2773.000,1.000
20.588,20.988,20.460,20.667,20.980,20.837,20.918,20.592,-0.010,0.985,-0.051,-0.275,-0.488,0.275,26.667,2774.000,1.000
22.230,22.261,22.049,22.144,22.538,22.382,22.509,22.272,-0.007,0.987,-0.051,-0.244,-0.458,0.183,26.667,2775.000,1.000
15.552,15.360,15.460,15.275,15.716,15.624,15.769,15.722,-0.008,0.986,-0.051,-0.153,-0.427,0.153,26.667,2776.000,1.000
7.923,7.782,8.053,7.658,8.017,8.041,8.024,8.229,-0.006,0.986,-0.052,-0.122,-0.336,0.244,26.667,2777.000,1.000
8.654,8.665,8.880,8.491,8.753,8.768,8.582,8.919,-0.008,0.984,-0.049,-0.244,-0.366,0.366,26.667,2778.000,1.000
12.056,12.045,12.120,11.952,12.216,11.969,11.880,12.036,-0.007,0.983,-0.050,-0.153,-0.397,0.153,26.667,2779.000,1.000
8.566,8.449,8.427,8.538,8.782,8.281,8.383,8.278,-0.007,0.984,-0.050,-0.183,-0.488,0.214,26.667,2780.000,1.000
2.635,2.588,2.479,2.691,2.780,2.356,2.438,2.359,-0.007,0.987,-0.054,-0.183,-0.519,0.153,26.667,2781.000,1.000
4.029,4.143,3.984,4.068,4.030,3.849,3.832,3.965,-0.008,0.985,-0.050,-0.244,-0.458,0.244,26.667,2782.000,1.000
9.149,9.243,9.233,9.088,9.099,8.984,9.061,9.200,-0.008,0.987,-0.047,-0.183,-0.488,0.214,26.667,2783.000,1.000
7.173,7.100,7.380,7.095,7.190,6.979,7.208,7.114,-0.008,0.985,-0.046,-0.275,-0.519,0.244,26.667,2784.000,1.000
-0.138,-0.270,0.079,-0.134,-0.032,-0.288,-0.134,-0.370,-0.006,0.986,-0.048,-0.275,-0.458,0.153,26.667,2785.000,1.000
-1.085,-1.127,-1.041,-1.111,-1.017,-1.189,-1.220,-1.396,-0.006,0.985,-0.050,-0.214,-0.458,0.336,26.667,2786.000,1.000
5.334,5.404,5.208,5.166,5.198,5.182,5.153,5.082,-0.009,0.985,-0.047,-0.183,-0.397,0.305,26.667,2787.000,1.000
7.749,7.924,7.580,7.533,7.438,7.568,7.631,7.687,-0.008,0.984,-0.045,-0.122,-0.427,0.305,26.667,2788.000,1.000
3.013,3.266,2.828,2.892,2.751,2.893,2.925,3.132,-0.008,0.984,-0.048,-0.183,-0.397,0.244,26.667,2789.000,1.000
1.551,1.830,1.407,1.663,1.512,1.518,1.474,1.695,-0.007,0.985,-0.046,-0.122,-0.427,0.244,26.667,2790.000,1.000
7.060,7.369,7.159,7.502,7.233,7.149,7.092,7.191,-0.008,0.984,-0.048,-0.214,-0.458,0.305,26.667,2791.000,1.000
9.057,9.385,9.475,9.667,9.314,9.257,9.253,9.319,-0.008,0.986,-0.049,-0.244,-0.427,0.305,26.667,2792.000,1.000
3.221,3.504,3.748,3.706,3.442,3.374,3.511,3.652,-0.008,0.987,-0.047,-0.244,-0.458,0.183,26.667,2793.000,1.000
0.169,0.409,0.556,0.508,0.333,0.206,0.485,0.586,-0.009,0.985,-0.050,-0.275,-0.488,0.183,26.667,2794.000,1.000
5.360,5.571,5.527,5.782,5.503,5.420,5.664,5.583,-0.007,0.986,-0.046,-0.183,-0.488,0.214,26.667,2795.000,1.000
8.921,8.981,8.891,9.477,8.993,9.081,9.136,8.931,-0.006,0.988,-0.047,-0.153,-0.519,0.153,26.667,2796.000,1.000
4.507,4.280,4.387,4.947,4.439,4.660,4.647,4.431,-0.007,0.986,-0.044,-0.061,-0.488,0.122,26.667,2797.000,1.000
0.780,0.319,0.760,0.916,0.639,0.779,0.951,0.737,-0.008,0.985,-0.048,-0.031,-0.488,0.122,26.667,2798.000,1.000
4.513,4.043,4.706,4.479,4.436,4.383,4.677,4.517,-0.009,0.984,-0.045,-0.122,-0.397,0.183,26.667,2799.000,1.000
8.156,7.885,8.474,8.194,8.215,8.116,8.223,8.195,-0.008,0.988,-0.049,-0.092,-0.458,0.244,26.667,2800.000,1.000
4.237,4.211,4.527,4.406,4.391,4.383,4.336,4.331,-0.009,0.985,-0.051,-0.092,-0.427,0.275,26.667,2801.000,1.000
-1.208,-1.123,-1.014,-1.067,-1.111,-1.095,-0.956,-1.095,-0.009,0.987,-0.051,-0.214,-0.397,0.153,26.667,2802.000,1.000
-0.123,-0.148,-0.047,-0.197,-0.172,-0.284,0.069,-0.097,-0.009,0.986,-0.052,-0.153,-0.458,0.122,26.667,2803.000,1.000
2.648,2.504,2.684,2.452,2.629,2.337,2.584,2.631,-0.009,0.988,-0.051,-0.122,-0.366,0.092,26.667,2804.000,1.000
-1.825,-1.790,-1.698,-1.804,-1.617,-1.923,-1.939,-1.710,-0.009,0.986,-0.045,-0.153,-0.397,0.214,26.667,2805.000,1.000
-9.542,-9.236,-9.448,-9.227,-9.253,-9.336,-9.487,-9.392,-0.008,0.987,-0.050,-0.092,-0.488,0.214,26.667,2806.000,1.000
-10.107,-9.875,-10.283,-9.820,-9.993,-9.895,-9.987,-10.203,-0.008,0.986,-0.048,-0.061,-0.366,0.275,26.667,2807.000,1.000
-5.896,-5.985,-6.260,-5.880,-5.972,-5.952,-5.863,-6.204,-0.009,0.986,-0.051,-0.122,-0.427,0.214,26.667,2808.000,1.000
-8.105,-8.355,-8.394,-8.273,-8.243,-8.393,-8.172,-8.364,-0.010,0.985,-0.050,-0.183,-0.427,0.275,26.667,2809.000,1.000
-15.750,-15.915,-15.901,-15.931,-15.828,-16.038,-15.885,-15.920,-0.008,0.988,-0.052,-0.214,-0.366,0.244,26.667,2810.000,1.000
-16.512,-16.581,-16.681,-16.661,-16.521,-16.674,-16.695,-16.731,-0.007,0.987,-0.049,-0.092,-0.366,0.366,26.667,2811.000,1.000
-9.648,-9.675,-9.906,-9.669,-9.727,-9.667,-9.779,-9.844,-0.009,0.988,-0.049,-0.214,-0.427,0.275,26.667,2812.000,1.000
-8.615,-8.500,-8.803,-8.280,-8.763,-8.392,-8.493,-8.516,-0.007,0.987,-0.050,-0.214,-0.488,0.214,26.667,2813.000,1.000
-16.664,-16.392,-16.655,-16.024,-16.643,-16.174,-16.308,-16.243,-0.007,0.987,-0.050,-0.275,-0.458,0.336,26.667,2814.000,1.000
-20.773,-20.570,-20.665,-20.275,-20.541,-20.266,-20.581,-20.382,-0.009,0.988,-0.046,-0.275,-0.427,0.336,26.667,2815.000,1.000
-15.843,-15.843,-15.756,-15.751,-15.670,-15.567,-16.081,-15.751,-0.008,0.987,-0.049,-0.214,-0.427,0.183,26.667,2816.000,1.000
-13.425,-13.494,-13.370,-13.572,-13.449,-13.331,-13.821,-13.508,-0.006,0.986,-0.049,-0.244,-0.458,0.183,26.667,2817.000,1.000
-19.398,-19.404,-19.387,-19.587,-19.530,-19.268,-19.604,-19.447,-0.007,0.986,-0.047,-0.244,-0.397,0.305,26.667,2818.000,1.000
-23.228,-23.230,-23.357,-23.502,-23.513,-23.029,-23.381,-23.336,-0.007,0.986,-0.049,-0.275,-0.397,0.244,26.667,2819.000,1.000
-17.928,-18.004,-18.250,-18.404,-18.448,-17.856,-18.335,-18.270,-0.008,0.986,-0.049,-0.244,-0.427,0.153,26.667,2820.000,1.000
-12.896,-13.006,-13.332,-13.538,-13.430,-13.028,-13.461,-13.334,-0.006,0.985,-0.049,-0.092,-0.458,0.122,26.667,2821.000,1.000
-16.181,-16.293,-16.637,-16.817,-16.534,-16.383,-16.563,-16.455,-0.009,0.985,-0.044,-0.153,-0.397,0.183,26.667,2822.000,1.000
-19.947,-20.085,-20.357,-20.388,-20.276,-20.127,-20.050,-20.014,-0.008,0.986,-0.045,-0.214,-0.458,0.214,26.667,2823.000,1.000
-16.120,-16.240,-16.360,-16.274,-16.485,-16.304,-16.158,-16.060,-0.007,0.986,-0.043,-0.153,-0.549,0.183,26.667,2824.000,1.000
-11.474,-11.545,-11.552,-11.495,-11.658,-11.680,-11.701,-11.362,-0.007,0.985,-0.048,-0.122,-0.397,0.244,26.667,2825.000,1.000
-13.988,-14.085,-14.116,-14.112,-13.949,-14.182,-14.403,-13.870,-0.007,0.987,-0.046,-0.122,-0.458,0.122,26.667,2826.000,1.000
-17.544,-17.617,-17.729,-17.749,-17.470,-17.688,-17.860,-17.386,-0.007,0.988,-0.046,-0.153,-0.366,0.122,26.667,2827.000,1.000
-13.670,-13.507,-13.601,-13.761,-13.607,-13.723,-13.642,-13.426,-0.007,0.985,-0.048,-0.061,-0.458,0.153,26.667,2828.000,1.000
-7.775,-7.408,-7.339,-7.622,-7.646,-7.678,-7.499,-7.475,-0.007,0.985,-0.048,-0.092,-0.397,0.214,26.667,2829.000,1.000
-9.727,-9.506,-9.224,-9.368,-9.585,-9.546,-9.534,-9.423,-0.009,0.985,-0.046,-0.092,-0.458,0.153,26.667,2830.000,1.000
-15.905,-16.003,-15.558,-15.556,-15.811,-15.838,-15.955,-15.608,-0.009,0.987,-0.047,-0.153,-0.397,0.092,26.667,2831.000,1.000
-15.253,-15.444,-14.884,-15.057,-15.081,-15.303,-15.288,-14.957,-0.008,0.987,-0.046,-0.183,-0.488,0.214,26.667,2832.000,1.000
-8.915,-8.938,-8.363,-8.809,-8.608,-8.920,-8.633,-8.701,-0.010,0.989,-0.046,-0.092,-0.488,0.275,26.667,2833.000,1.000
-8.288,-8.145,-7.764,-8.215,-8.039,-8.274,-7.831,-8.261,-0.010,0.988,-0.046,-0.061,-0.519,0.214,26.667,2834.000,1.000
-14.408,-14.295,-14.186,-14.431,-14.336,-14.511,-14.166,-14.517,-0.010,0.987,-0.049,-0.061,-0.458,0.214,26.667,2835.000,1.000
-15.951,-16.077,-16.076,-16.196,-15.943,-16.170,-16.072,-16.073,-0.009,0.987,-0.052,-0.092,-0.458,0.153,26.667,2836.000,1.000
-10.098,-10.462,-10.438,-10.586,-10.075,-10.375,-10.444,-10.231,-0.010,0.989,-0.052,-0.092,-0.458,0.275,26.667,2837.000,1.000
-8.079,-8.363,-8.357,-8.545,-8.070,-8.319,-8.441,-8.221,-0.009,0.986,-0.051,-0.153,-0.488,0.397,26.667,2838.000,1.000
-14.309,-14.194,-14.268,-14.395,-14.292,-14.310,-14.512,-14.310,-0.009,0.988,-0.052,-0.153,-0.397,0.244,26.667,2839.000,1.000
-17.422,-16.980,-17.140,-17.137,-17.328,-17.138,-17.374,-17.216,-0.010,0.987,-0.052,-0.214,-0.336,0.305,26.667,2840.000,1.000
-10.748,-10.378,-10.536,-10.498,-10.564,-10.472,-10.525,-10.539,-0.009,0.985,-0.050,-0.153,-0.427,0.366,26.667,2841.000,1.000
-4.602,-4.574,-4.517,-4.635,-4.386,-4.595,-4.379,-4.590,-0.008,0.984,-0.052,-0.153,-0.366,0.366,26.667,2842.000,1.000
-7.219,-7.462,-7.057,-7.349,-7.066,-7.430,-7.074,-7.328,-0.007,0.986,-0.049,-0.214,-0.336,0.275,26.667,2843.000,1.000
-10.058,-10.361,-9.809,-10.051,-9.982,-10.303,-9.907,-10.092,-0.007,0.988,-0.049,-0.183,-0.458,0.275,26.667,2844.000,1.000
-4.464,-4.626,-4.294,-4.313,-4.311,-4.560,-4.196,-4.346,-0.006,0.987,-0.051,-0.275,-0.397,0.305,26.667,2845.000,1.000
2.630,2.651,2.673,2.843,2.949,2.783,2.907,2.780,-0.007,0.987,-0.051,-0.275,-0.366,0.214,26.667,2846.000,1.000
2.671,2.652,2.630,2.833,2.944,2.901,2.644,2.622,-0.008,0.987,-0.048,-0.275,-0.397,0.244,26.667,2847.000,1.000
1.272,1.096,1.188,1.282,1.252,1.265,0.865,0.950,-0.006,0.985,-0.049,-0.336,-0.427,0.366,26.667,2848.000,1.000
6.785,6.659,6.654,6.651,6.516,6.491,6.280,6.363,-0.007,0.983,-0.047,-0.275,-0.427,0.244,26.667,2849.000,1.000
14.147,14.163,13.930,13.940,13.834,13.829,13.777,13.798,-0.007,0.986,-0.050,-0.275,-0.397,0.183,26.667,2850.000,1.000
13.951,13.949,13.754,13.752,13.749,13.813,13.759,13.727,-0.009,0.985,-0.048,-0.153,-0.488,0.153,26.667,2851.000,1.000
9.953,9.902,9.959,9.892,9.924,9.985,10.001,9.889,-0.009,0.988,-0.051,-0.183,-0.427,0.183,26.667,2852.000,1.000
12.458,12.399,12.588,12.567,12.462,12.549,12.724,12.451,-0.008,0.984,-0.048,-0.244,-0.458,0.183,26.667,2853.000,1.000
19.286,19.105,19.301,19.341,19.059,19.276,19.477,19.064,-0.008,0.987,-0.049,-0.153,-0.488,0.183,26.667,2854.000,1.000
19.672,19.334,19.542,19.435,19.248,19.526,19.550,19.209,-0.008,0.985,-0.045,-0.214,-0.458,0.122,26.667,2855.000,1.000
14.160,13.843,14.085,13.765,13.940,14.105,13.911,13.798,-0.007,0.984,-0.045,-0.214,-0.458,0.153,26.667,2856.000,1.000
13.862,13.702,13.984,13.659,14.038,14.070,13.800,13.874,-0.007,0.986,-0.048,-0.153,-0.458,0.244,26.667,2857.000,1.000
19.923,19.916,20.157,20.038,20.223,20.267,20.048,20.269,-0.007,0.986,-0.046,-0.214,-0.427,0.214,26.667,2858.000,1.000
20.896,20.969,21.039,21.190,21.051,21.193,20.995,21.344,-0.008,0.987,-0.046,-0.061,-0.458,0.153,26.667,2859.000,1.000
14.098,14.083,14.005,14.360,14.118,14.251,13.995,14.378,-0.010,0.984,-0.044,-0.031,-0.519,0.214,26.667,2860.000,1.000
11.300,10.984,10.949,11.301,11.182,11.216,10.944,11.279,-0.010,0.987,-0.047,0.031,-0.580,0.214,26.667,2861.000,1.000
16.772,16.198,16.326,16.403,16.416,16.479,16.333,16.581,-0.009,0.986,-0.047,0.000,-0.549,0.244,26.667,2862.000,1.000
18.866,18.396,18.557,18.336,18.351,18.599,18.626,18.725,-0.008,0.988,-0.051,0.000,-0.488,0.244,26.667,2863.000,1.000
11.811,11.723,11.734,11.482,11.472,11.804,11.914,11.779,-0.009,0.985,-0.048,-0.031,-0.427,0.214,26.667,2864.000,1.000
6.618,6.866,6.746,6.649,6.779,6.973,7.075,6.692,-0.008,0.987,-0.049,-0.122,-0.458,0.183,26.667,2865.000,1.000
10.436,10.855,10.683,10.699,11.038,11.093,11.161,10.650,-0.008,0.986,-0.050,-0.061,-0.427,0.153,26.667,2866.000,1.000
13.626,14.034,13.814,13.886,14.195,14.274,14.341,13.845,-0.006,0.986,-0.050,-0.122,-0.427,0.153,26.667,2867.000,1.000
8.155,8.369,8.149,8.308,8.307,8.454,8.546,8.152,-0.010,0.985,-0.048,-0.031,-0.366,0.244,26.667,2868.000,1.000
2.036,2.078,1.891,2.184,1.834,1.972,2.033,1.830,-0.008,0.987,-0.047,-0.153,-0.366,0.336,26.667,2869.000,1.000
4.115,4.207,3.956,4.351,3.841,3.903,3.844,3.876,-0.009,0.985,-0.047,-0.153,-0.458,0.244,26.667,2870.000,1.000
8.559,8.751,8.408,8.755,8.368,8.329,8.174,8.332,-0.008,0.986,-0.049,-0.183,-0.458,0.183,26.667,2871.000,1.000
6.549,6.661,6.387,6.501,6.445,6.324,6.249,6.317,-0.008,0.986,-0.050,-0.275,-0.305,0.214,26.667,2872.000,1.000
2.450,2.411,2.334,2.212,2.362,2.285,2.340,2.253,-0.007,0.989,-0.051,-0.214,-0.427,0.244,26.667,2873.000,1.000
5.135,5.031,5.135,4.997,4.924,5.091,5.029,5.022,-0.007,0.987,-0.053,-0.122,-0.458,0.214,26.667,2874.000,1.000
11.251,11.177,11.279,11.304,10.876,11.270,10.990,11.233,-0.008,0.988,-0.053,-0.122,-0.488,0.183,26.667,2875.000,1.000
11.153,11.259,11.060,11.175,10.803,11.148,10.951,11.193,-0.010,0.988,-0.046,-0.122,-0.397,0.275,26.667,2876.000,1.000
6.342,6.742,6.155,6.280,6.191,6.409,6.420,6.372,-0.008,0.986,-0.049,-0.244,-0.366,0.153,26.667,2877.000,1.000
6.843,7.371,6.718,6.975,6.869,7.132,7.056,6.851,-0.008,0.985,-0.049,-0.244,-0.519,0.214,26.667,2878.000,1.000
13.216,13.463,13.161,13.607,13.328,13.586,13.326,13.241,-0.008,0.987,-0.048,-0.183,-0.427,0.122,26.667,2879.000,1.000
15.386,15.125,15.249,15.661,15.445,15.490,15.376,15.379,-0.006,0.987,-0.049,-0.153,-0.519,0.214,26.667,2880.000,1.000
11.198,10.751,10.943,11.127,11.069,10.958,11.199,11.030,-0.008,0.988,-0.046,-0.183,-0.488,0.275,26.667,2881.000,1.000
11.001,10.926,10.805,10.814,10.844,10.719,11.126,10.725,-0.008,0.989,-0.045,-0.214,-0.397,0.305,26.667,2882.000,1.000
18.117,18.525,18.163,18.072,18.269,18.061,18.353,18.028,-0.008,0.985,-0.043,-0.183,-0.458,0.214,26.667,2883.000,1.000
21.355,21.833,21.621,21.450,21.792,21.419,21.583,21.562,-0.008,0.984,-0.047,-0.244,-0.458,0.214,26.667,2884.000,1.000
15.451,15.638,15.724,15.601,15.810,15.333,15.617,15.675,-0.009,0.982,-0.046,-0.397,-0.519,0.275,26.667,2885.000,1.000
11.147,11.115,11.231,11.308,11.278,10.793,11.273,11.182,-0.009,0.984,-0.047,-0.366,-0.397,0.275,26.667,2886.000,1.000
14.819,14.853,14.703,14.992,14.904,14.494,14.869,14.768,-0.009,0.984,-0.049,-0.183,-0.427,0.305,26.667,2887.000,1.000
16.521,16.729,16.404,16.783,16.735,16.462,16.471,16.531,-0.007,0.985,-0.050,-0.183,-0.519,0.244,26.667,2888.000,1.000
9.607,9.861,9.694,9.982,9.906,9.781,9.523,9.706,-0.008,0.985,-0.045,-0.153,-0.519,0.305,26.667,2889.000,1.000
3.814,3.892,3.984,4.100,3.994,4.004,3.682,3.913,-0.008,0.985,-0.047,-0.122,-0.427,0.275,26.667,2890.000,1.000
6.615,6.420,6.561,6.582,6.560,6.686,6.363,6.554,-0.009,0.985,-0.046,-0.183,-0.458,0.153,26.667,2891.000,1.000
8.931,8.708,8.707,8.664,8.807,8.956,8.648,8.691,-0.006,0.987,-0.049,-0.244,-0.427,0.214,26.667,2892.000,1.000
2.060,2.136,2.049,1.850,2.107,2.142,1.858,1.875,-0.008,0.984,-0.049,-0.153,-0.458,0.244,26.667,2893.000,1.000
-6.441,-6.105,-6.144,-6.453,-6.271,-6.315,-6.610,-6.335,-0.009,0.988,-0.047,-0.092,-0.458,0.244,26.667,2894.000,1.000
-6.953,-6.611,-6.639,-6.827,-6.918,-6.807,-7.024,-6.636,-0.006,0.985,-0.047,-0.153,-0.458,0.244,26.667,2895.000,1.000
-5.092,-4.808,-4.909,-4.891,-5.226,-4.918,-4.861,-4.902,-0.007,0.985,-0.049,-0.122,-0.397,0.214,26.667,2896.000,1.000
-10.501,-10.183,-10.344,-10.264,-10.541,-10.388,-10.073,-10.570,-0.009,0.984,-0.051,-0.122,-0.397,0.092,26.667,2897.000,1.000
-18.605,-18.224,-18.438,-18.419,-18.375,-18.686,-18.287,-18.665,-0.007,0.986,-0.050,-0.214,-0.458,0.092,26.667,2898.000,1.000
-19.032,-18.696,-18.860,-18.944,-18.631,-19.261,-18.827,-18.850,-0.009,0.987,-0.051,-0.061,-0.427,0.153,26.667,2899.000,1.000
-14.709,-14.554,-14.463,-14.621,-14.314,-14.850,-14.450,-14.422,-0.009,0.987,-0.051,-0.153,-0.488,0.244,26.667,2900.000,1.000
-16.424,-16.432,-16.145,-16.218,-16.172,-16.338,-16.178,-16.245,-0.009,0.988,-0.053,-0.153,-0.549,0.183,26.667,2901.000,1.000
-23.244,-23.230,-23.061,-22.974,-23.190,-23.018,-23.121,-23.112,-0.009,0.988,-0.049,-0.153,-0.488,0.183,26.667,2902.000,1.000
-24.621,-24.453,-24.539,-24.464,-24.691,-24.420,-24.491,-24.400,-0.010,0.986,-0.048,-0.092,-0.549,0.214,26.667,2903.000,1.000
-19.545,-19.220,-19.448,-19.535,-19.584,-19.462,-19.283,-19.307,-0.011,0.988,-0.049,-0.122,-0.488,0.244,26.667,2904.000,1.000
-17.672,-17.307,-17.545,-17.717,-17.564,-17.688,-17.430,-17.581,-0.010,0.988,-0.046,-0.244,-0.458,0.244,26.667,2905.000,1.000
-21.105,-20.939,-21.131,-21.241,-20.931,-21.181,-21.105,-21.247,-0.010,0.987,-0.048,-0.244,-0.519,0.244,26.667,2906.000,1.000
-20.310,-20.495,-20.571,-20.575,-20.291,-20.477,-20.505,-20.639,-0.012,0.987,-0.048,-0.214,-0.458,0.305,26.667,2907.000,1.000
-12.060,-12.500,-12.355,-12.295,-12.234,-12.363,-12.281,-12.415,-0.011,0.985,-0.047,-0.214,-0.580,0.275,26.667,2908.000,1.000
-6.457,-6.919,-6.645,-6.529,-6.653,-6.856,-6.720,-6.704,-0.010,0.985,-0.048,-0.214,-0.458,0.305,26.667,2909.000,1.000
-8.491,-8.827,-8.699,-8.490,-8.658,-8.930,-8.838,-8.630,-0.008,0.984,-0.051,-0.183,-0.549,0.275,26.667,2910.000,1.000
-8.422,-8.712,-8.819,-8.513,-8.679,-8.933,-8.732,-8.557,-0.008,0.987,-0.050,-0.183,-0.488,0.214,26.667,2911.000,1.000
-0.217,-0.578,-0.750,-0.452,-0.569,-0.753,-0.376,-0.405,-0.007,0.985,-0.045,-0.183,-0.488,0.336,26.667,2912.000,1.000
6.938,6.620,6.543,6.692,6.680,6.678,6.975,6.854,-0.008,0.986,-0.045,-0.244,-0.488,0.214,26.667,2913.000,1.000
5.819,5.777,5.801,5.794,5.825,6.095,6.103,6.079,-0.007,0.985,-0.048,-0.183,-0.458,0.366,26.667,2914.000,1.000
4.027,4.344,4.385,4.261,4.322,4.649,4.527,4.636,-0.007,0.985,-0.050,-0.153,-0.458,0.336,26.667,2915.000,1.000
9.087,9.619,9.634,9.339,9.556,9.624,9.632,9.756,-0.006,0.985,-0.048,-0.214,-0.488,0.244,26.667,2916.000,1.000
14.859,15.332,15.329,14.912,15.207,15.133,15.264,15.236,-0.006,0.986,-0.051,-0.244,-0.458,0.153,26.667,2917.000,1.000
13.874,14.084,14.002,13.748,13.817,13.967,14.044,13.851,-0.008,0.984,-0.045,-0.244,-0.366,0.275,26.667,2918.000,1.000
11.345,11.341,11.114,11.203,10.994,11.401,11.299,11.184,-0.009,0.985,-0.048,-0.183,-0.458,0.244,26.667,2919.000,1.000
15.110,15.057,14.818,15.053,14.796,15.257,14.965,15.124,-0.009,0.987,-0.049,-0.122,-0.458,0.244,26.667,2920.000,1.000
20.541,20.446,20.412,20.524,20.282,20.730,20.377,20.713,-0.007,0.988,-0.049,-0.061,-0.397,0.275,26.667,2921.000,1.000
18.175,17.956,18.111,18.150,17.827,18.205,17.975,18.264,-0.006,0.985,-0.049,0.000,-0.427,0.336,26.667,2922.000,1.000
10.830,10.596,10.746,10.882,10.573,10.731,10.717,10.771,-0.008,0.985,-0.052,-0.061,-0.458,0.275,26.667,2923.000,1.000
9.179,9.181,9.284,9.441,9.305,9.261,9.433,9.238,-0.008,0.985,-0.049,-0.061,-0.458,0.244,26.667,2924.000,1.000
12.618,12.827,13.002,13.039,12.978,12.990,13.235,13.055,-0.009,0.986,-0.050,-0.122,-0.427,0.061,26.667,2925.000,1.000
10.353,10.387,10.713,10.662,10.522,10.739,10.944,10.948,-0.007,0.987,-0.046,-0.153,-0.488,0.122,26.667,2926.000,1.000
1.957,1.623,2.108,1.986,1.841,2.114,2.228,2.226,-0.008,0.988,-0.050,-0.153,-0.427,0.214,26.667,2927.000,1.000
-1.095,-1.537,-0.979,-1.215,-1.247,-1.089,-1.076,-1.195,-0.009,0.987,-0.050,-0.092,-0.427,0.336,26.667,2928.000,1.000
2.954,2.719,3.063,2.853,2.952,2.959,2.970,2.904,-0.010,0.987,-0.051,-0.122,-0.427,0.183,26.667,2929.000,1.000
2.095,2.027,2.003,1.942,2.198,2.047,2.209,2.295,-0.009,0.984,-0.051,-0.122,-0.488,0.122,26.667,2930.000,1.000
-7.405,-7.590,-7.662,-7.766,-7.378,-7.604,-7.393,-7.208,-0.009,0.987,-0.051,-0.092,-0.427,0.183,26.667,2931.000,1.000
-13.924,-14.293,-14.103,-14.378,-14.080,-14.192,-14.214,-13.964,-0.008,0.987,-0.049,-0.183,-0.519,0.275,26.667,2932.000,1.000
-11.734,-12.046,-11.772,-12.019,-11.990,-11.911,-12.195,-11.906,-0.008,0.988,-0.050,-0.183,-0.488,0.275,26.667,2933.000,1.000
-10.911,-11.059,-10.917,-11.071,-11.115,-10.963,-11.322,-10.955,-0.008,0.987,-0.046,-0.305,-0.458,0.244,26.667,2934.000,1.000
-17.586,-17.752,-17.599,-17.902,-17.703,-17.581,-17.945,-17.407,-0.008,0.985,-0.045,-0.275,-0.397,0.305,26.667,2935.000,1.000
-22.334,-22.621,-22.297,-22.836,-22.371,-22.322,-22.682,-22.091,-0.005,0.985,-0.047,-0.214,-0.488,0.305,26.667,2936.000,1.000
-18.459,-18.777,-18.370,-18.931,-18.383,-18.504,-18.754,-18.390,-0.007,0.985,-0.047,-0.275,-0.458,0.305,26.667,2937.000,1.000
-14.906,-15.200,-14.889,-15.305,-14.805,-15.126,-15.164,-15.110,-0.007,0.988,-0.047,-0.214,-0.458,0.305,26.667,2938.000,1.000
-19.627,-19.946,-19.793,-20.049,-19.653,-20.044,-19.843,-20.044,-0.009,0.987,-0.047,-0.153,-0.488,0.244,26.667,2939.000,1.000
-24.793,-25.201,-25.059,-25.160,-24.900,-25.268,-24.877,-25.334,-0.008,0.987,-0.048,-0.214,-0.488,0.397,26.667,2940.000,1.000
-21.181,-21.681,-21.387,-21.357,-21.246,-21.563,-21.189,-21.751,-0.007,0.985,-0.049,-0.122,-0.488,0.336,26.667,2941.000,1.000
-15.082,-15.519,-15.138,-15.055,-15.025,-15.280,-15.140,-15.472,-0.010,0.988,-0.047,-0.183,-0.458,0.214,26.667,2942.000,1.000
-16.691,-16.887,-16.547,-16.496,-16.439,-16.677,-16.740,-16.752,-0.010,0.985,-0.046,-0.244,-0.427,0.214,26.667,2943.000,1.000
-21.658,-21.662,-21.353,-21.383,-21.340,-21.535,-21.646,-21.579,-0.008,0.988,-0.048,-0.214,-0.366,0.336,26.667,2944.000,1.000
-19.267,-19.202,-18.908,-19.032,-19.130,-19.201,-19.303,-19.300,-0.009,0.986,-0.046,-0.214,-0.427,0.336,26.667,2945.000,1.000
-11.552,-11.362,-11.199,-11.387,-11.539,-11.555,-11.666,-11.643,-0.009,0.986,-0.047,-0.122,-0.458,0.244,26.667,2946.000,1.000
-9.247,-8.885,-8.930,-9.108,-9.131,-9.147,-9.286,-9.216,-0.007,0.985,-0.042,-0.214,-0.458,0.183,26.667,2947.000,1.000
-12.566,-12.176,-12.308,-12.474,-12.385,-12.303,-12.445,-12.448,-0.008,0.985,-0.046,-0.122,-0.458,0.183,26.667,2948.000,1.000
-10.798,-10.556,-10.676,-10.856,-10.782,-10.619,-10.699,-10.828,-0.006,0.985,-0.044,-0.122,-0.488,0.244,26.667,2949.000,1.000
-1.805,-1.730,-1.950,-1.982,-2.026,-1.918,-1.967,-2.104,-0.007,0.985,-0.047,-0.092,-0.549,0.214,26.667,2950.000,1.000
3.453,3.505,3.102,3.359,3.109,3.223,3.102,3.053,-0.007,0.987,-0.049,-0.153,-0.549,0.153,26.667,2951.000,1.000
0.825,0.969,0.540,0.896,0.515,0.762,0.609,0.599,-0.008,0.987,-0.048,-0.183,-0.549,0.153,26.667,2952.000,1.000
0.534,0.728,0.444,0.630,0.431,0.610,0.600,0.609,-0.008,0.987,-0.048,-0.153,-0.488,0.275,26.667,2953.000,1.000
7.423,7.589,7.417,7.447,7.600,7.398,7.615,7.665,-0.008,0.987,-0.048,-0.214,-0.519,0.244,26.667,2954.000,1.000
11.677,11.800,11.625,11.711,11.920,11.496,11.730,11.796,-0.010,0.988,-0.049,-0.031,-0.397,0.244,26.667,2955.000,1.000
8.178,8.231,8.053,8.289,8.194,8.022,7.908,8.067,-0.009,0.989,-0.051,-0.061,-0.366,0.275,26.667,2956.000,1.000
7.039,6.949,6.866,7.092,6.766,6.978,6.466,6.856,-0.008,0.986,-0.049,-0.122,-0.458,0.305,26.667,2957.000,1.000
14.178,13.975,13.982,14.011,13.700,14.083,13.524,14.010,-0.008,0.985,-0.050,-0.061,-0.458,0.305,26.667,2958.000,1.000
19.160,18.990,19.005,18.899,18.625,18.962,18.696,18.944,-0.010,0.986,-0.048,-0.061,-0.458,0.275,26.667,2959.000,1.000
14.566,14.519,14.511,14.422,14.199,14.353,14.375,14.330,-0.008,0.986,-0.048,-0.153,-0.397,0.214,26.667,2960.000,1.000
10.070,10.141,9.989,9.965,9.940,9.904,9.945,9.920,-0.008,0.987,-0.049,-0.214,-0.397,0.275,26.667,2961.000,1.000
14.192,14.355,13.905,14.000,14.174,14.053,13.965,14.175,-0.007,0.983,-0.047,-0.122,-0.366,0.183,26.667,2962.000,1.000
18.483,18.726,18.184,18.336,18.532,18.425,18.340,18.615,-0.008,0.986,-0.050,-0.153,-0.305,0.183,26.667,2963.000,1.000
13.678,13.970,13.721,13.626,13.791,13.783,13.799,13.874,-0.008,0.986,-0.049,-0.153,-0.336,0.214,26.667,2964.000,1.000
6.879,7.159,7.200,6.766,6.987,7.035,7.072,6.935,-0.008,0.987,-0.052,-0.305,-0.366,0.183,26.667,2965.000,1.000
8.281,8.516,8.553,8.137,8.385,8.279,8.280,8.104,-0.007,0.985,-0.050,-0.214,-0.427,0.183,26.667,2966.000,1.000
12.826,13.011,12.945,12.861,13.004,12.678,12.689,12.530,-0.008,0.987,-0.051,-0.244,-0.397,0.183,26.667,2967.000,1.000
9.993,10.093,10.058,10.261,10.250,9.914,9.991,9.749,-0.008,0.987,-0.051,-0.153,-0.458,0.153,26.667,2968.000,1.000
3.027,3.035,3.158,3.424,3.314,3.194,3.293,2.951,-0.007,0.986,-0.048,-0.183,-0.397,0.153,26.667,2969.000,1.000
2.659,2.607,2.868,3.040,2.922,3.032,3.069,2.763,-0.008,0.986,-0.044,-0.153,-0.458,0.244,26.667,2970.000,1.000
7.249,7.133,7.385,7.473,7.376,7.518,7.572,7.385,-0.008,0.988,-0.046,-0.214,-0.458,0.214,26.667,2971.000,1.000
5.808,5.655,5.783,5.875,5.716,5.723,5.916,5.815,-0.008,0.986,-0.047,-0.122,-0.458,0.275,26.667,2972.000,1.000
-1.366,-1.448,-1.478,-1.334,-1.570,-1.623,-1.420,-1.419,-0.009,0.986,-0.047,-0.183,-0.458,0.183,26.667,2973.000,1.000
-2.270,-2.314,-2.482,-2.297,-2.476,-2.379,-2.385,-2.247,-0.008,0.985,-0.046,-0.122,-0.488,0.275,26.667,2974.000,1.000
4.770,4.569,4.391,4.538,4.516,4.811,4.654,4.795,-0.009,0.987,-0.047,-0.214,-0.549,0.244,26.667,2975.000,1.000
6.817,6.393,6.372,6.387,6.554,6.832,6.726,6.691,-0.008,0.987,-0.047,-0.122,-0.488,0.214,26.667,2976.000,1.000
-0.690,-1.195,-1.039,-1.118,-0.807,-0.697,-0.738,-0.937,-0.009,0.988,-0.046,-0.153,-0.427,0.214,26.667,2977.000,1.000
-5.690,-6.013,-5.874,-5.858,-5.624,-5.571,-5.626,-5.859,-0.009,0.985,-0.049,-0.122,-0.397,0.214,26.667,2978.000,1.000
-1.485,-1.423,-1.482,-1.229,-1.269,-1.253,-1.245,-1.427,-0.007,0.985,-0.050,-0.183,-0.488,0.275,26.667,2979.000,1.000
1.806,2.102,1.927,2.399,2.170,1.943,2.151,2.060,-0.009,0.987,-0.045,-0.122,-0.427,0.305,26.667,2980.000,1.000
-3.268,-3.074,-3.153,-2.612,-2.817,-3.293,-2.923,-2.908,-0.008,0.986,-0.050,-0.092,-0.458,0.305,26.667,2981.000,1.000
-8.145,-8.173,-8.067,-7.621,-7.788,-8.173,-7.821,-7.792,-0.009,0.986,-0.048,-0.183,-0.397,0.275,26.667,2982.000,1.000
-5.055,-5.229,-5.006,-4.700,-4.936,-4.980,-4.760,-4.884,-0.009,0.985,-0.049,-0.214,-0.366,0.214,26.667,2983.000,1.000
-1.258,-1.467,-1.255,-1.069,-1.270,-1.099,-1.030,-1.316,-0.007,0.985,-0.049,-0.183,-0.336,0.305,26.667,2984.000,1.000
-4.900,-5.043,-4.940,-4.870,-4.813,-4.714,-4.782,-5.021,-0.008,0.987,-0.049,-0.183,-0.336,0.275,26.667,2985.000,1.000
-10.144,-10.195,-10.206,-10.206,-9.918,-9.996,-10.165,-10.185,-0.005,0.987,-0.051,-0.122,-0.397,0.153,26.667,2986.000,1.000
-8.520,-8.537,-8.572,-8.610,-8.296,-8.440,-8.672,-8.461,-0.007,0.986,-0.050,-0.092,-0.397,0.305,26.667,2987.000,1.000
-4.329,-4.394,-4.376,-4.436,-4.212,-4.393,-4.589,-4.193,-0.007,0.988,-0.047,-0.122,-0.427,0.244,26.667,2988.000,1.000
-6.006,-6.161,-6.116,-6.075,-6.033,-6.354,-6.307,-5.845,-0.010,0.986,-0.047,-0.092,-0.458,0.244,26.667,2989.000,1.000
-10.233,-10.458,-10.483,-10.244,-10.469,-10.819,-10.493,-10.159,-0.009,0.986,-0.048,-0.122,-0.458,0.092,26.667,2990.000,1.000
-8.267,-8.470,-8.626,-8.292,-8.655,-8.753,-8.480,-8.348,-0.010,0.985,-0.049,-0.061,-0.488,0.244,26.667,2991.000,1.000
-2.502,-2.534,-2.742,-2.468,-2.738,-2.585,-2.657,-2.646,-0.009,0.987,-0.053,-0.183,-0.519,0.214,26.667,2992.000,1.000
-2.387,-2.184,-2.266,-2.083,-2.238,-2.163,-2.399,-2.443,-0.009,0.985,-0.047,-0.183,-0.427,0.275,26.667,2993.000,1.000
-6.907,-6.568,-6.485,-6.343,-6.471,-6.692,-6.741,-6.827,-0.009,0.987,-0.046,-0.275,-0.366,0.122,26.667,2994.000,1.000
-5.859,-5.557,-5.442,-5.346,-5.389,-5.720,-5.629,-5.696,-0.008,0.986,-0.046,-0.244,-0.397,0.183,26.667,2995.000,1.000
1.474,1.627,1.639,1.637,1.778,1.670,1.595,1.649,-0.008,0.985,-0.048,-0.305,-0.397,0.183,26.667,2996.000,1.000
4.221,4.295,4.134,4.043,4.244,4.390,4.212,4.367,-0.006,0.986,-0.049,-0.153,-0.305,0.153,26.667,2997.000,1.000
-0.070,0.101,-0.188,-0.273,-0.271,-0.147,-0.032,0.074,-0.008,0.987,-0.049,-0.183,-0.397,0.153,26.667,2998.000,1.000
-0.316,-0.053,-0.262,-0.287,-0.485,-0.592,-0.162,-0.148,-0.008,0.987,-0.049,-0.153,-0.427,0.183,26.667,2999.000,1.000
7.067,7.258,7.293,7.193,7.089,6.889,7.180,7.189,-0.010,0.986,-0.047,-0.214,-0.397,0.122,26.667,3000.000,1.000
11.403,11.505,11.660,11.308,11.432,11.477,11.353,11.396,-0.008,0.986,-0.048,-0.244,-0.397,0.183,26.667,3001.000,1.000
8.534,8.634,8.684,8.147,8.275,8.692,8.310,8.399,-0.009,0.984,-0.048,-0.183,-0.427,0.244,26.667,3002.000,1.000
8.349,8.467,8.390,7.899,7.827,8.392,7.998,8.160,-0.007,0.986,-0.050,-0.275,-0.427,0.305,26.667,3003.000,1.000
15.672,15.823,15.750,15.392,15.220,15.638,15.373,15.578,-0.007,0.986,-0.049,-0.305,-0.427,0.153,26.667,3004.000,1.000
21.271,21.508,21.478,21.180,21.122,21.310,21.185,21.402,-0.008,0.985,-0.046,-0.183,-0.519,0.336,26.667,3005.000,1.000
18.893,19.194,19.102,18.843,18.976,19.041,18.928,19.154,-0.009,0.984,-0.045,-0.183,-0.427,0.244,26.667,3006.000,1.000
16.806,17.014,16.875,16.697,16.945,17.021,16.848,16.980,-0.010,0.985,-0.046,-0.275,-0.549,0.244,26.667,3007.000,1.000
22.667,22.663,22.710,22.556,22.780,22.922,22.819,22.733,-0.010,0.987,-0.049,-0.153,-0.458,0.305,26.667,3008.000,1.000
29.212,29.134,29.423,29.224,29.292,29.488,29.502,29.352,-0.009,0.987,-0.049,-0.061,-0.458,0.244,26.667,3009.000,1.000
27.329,27.475,27.702,27.611,27.462,27.687,27.646,27.714,-0.009,0.985,-0.049,0.000,-0.488,0.275,26.667,3010.000,1.000
22.620,23.079,23.079,23.252,22.954,23.131,23.035,23.198,-0.007,0.985,-0.052,-0.061,-0.458,0.244,26.667,3011.000,1.000
24.698,25.219,25.234,25.471,25.212,25.256,25.324,25.197,-0.009,0.985,-0.050,-0.092,-0.397,0.153,26.667,3012.000,1.000
29.000,29.264,29.521,29.507,29.448,29.437,29.653,29.241,-0.010,0.986,-0.048,-0.122,-0.397,0.244,26.667,3013.000,1.000
24.851,24.757,25.149,24.872,25.005,25.106,25.251,24.907,-0.008,0.987,-0.045,-0.122,-0.458,0.244,26.667,3014.000,1.000
15.229,14.978,15.236,14.954,15.115,15.339,15.355,15.250,-0.006,0.987,-0.051,-0.214,-0.488,0.183,26.667,3015.000,1.000
12.133,12.023,12.012,12.010,11.953,12.189,12.179,12.209,-0.007,0.986,-0.052,-0.183,-0.427,0.153,26.667,3016.000,1.000
15.252,15.357,15.139,15.495,15.119,15.281,15.396,15.369,-0.007,0.987,-0.050,-0.122,-0.366,0.183,26.667,3017.000,1.000
12.211,12.394,12.092,12.513,12.119,12.213,12.419,12.231,-0.007,0.986,-0.050,-0.153,-0.488,0.244,26.667,3018.000,1.000
0.785,0.935,0.626,0.762,0.716,0.899,0.860,0.588,-0.007,0.987,-0.050,-0.092,-0.427,0.305,26.667,3019.000,1.000
-6.850,-6.764,-7.078,-7.123,-6.932,-6.524,-6.920,-7.189,-0.009,0.986,-0.050,-0.214,-0.397,0.214,26.667,3020.000,1.000
-6.226,-6.215,-6.544,-6.415,-6.334,-5.820,-6.197,-6.552,-0.006,0.986,-0.049,-0.244,-0.519,0.183,26.667,3021.000,1.000
-8.493,-8.555,-8.819,-8.411,-8.533,-8.144,-8.253,-8.733,-0.008,0.986,-0.049,-0.092,-0.427,0.122,26.667,3022.000,1.000
-19.076,-19.157,-19.293,-18.707,-18.979,-18.806,-18.829,-19.196,-0.008,0.986,-0.048,-0.214,-0.458,0.122,26.667,3023.000,1.000
-27.607,-27.613,-27.765,-27.135,-27.493,-27.492,-27.595,-27.652,-0.008,0.989,-0.047,-0.305,-0.488,0.214,26.667,3024.000,1.000
-28.147,-28.047,-28.372,-27.960,-28.174,-28.261,-28.365,-28.259,-0.007,0.986,-0.049,-0.305,-0.580,0.275,26.667,3025.000,1.000
-30.279,-30.147,-30.559,-30.512,-30.423,-30.513,-30.484,-30.455,-0.008,0.987,-0.050,-0.214,-0.549,0.183,26.667,3026.000,1.000
-40.254,-40.139,-40.454,-40.514,-40.364,-40.433,-40.209,-40.317,-0.008,0.986,-0.050,-0.031,-0.549,0.244,26.667,3027.000,1.000
-48.836,-48.725,-48.826,-48.775,-48.872,-48.913,-48.608,-48.726,-0.009,0.987,-0.051,-0.092,-0.458,0.214,26.667,3028.000,1.000
-48.683,-48.643,-48.515,-48.513,-48.819,-48.752,-48.590,-48.521,-0.007,0.986,-0.046,-0.244,-0.488,0.153,26.667,3029.000,1.000
-47.837,-47.969,-47.793,-47.882,-48.237,-48.005,-47.992,-47.757,-0.008,0.987,-0.049,-0.183,-0.366,0.275,26.667,3030.000,1.000
-54.020,-54.302,-54.287,-54.224,-54.588,-54.280,-54.208,-54.122,-0.012,0.985,-0.046,-0.214,-0.336,0.183,26.667,3031.000,1.000
-60.248,-60.545,-60.682,-60.466,-60.715,-60.513,-60.325,-60.526,-0.010,0.986,-0.050,-0.183,-0.305,0.275,26.667,3032.000,1.000
-58.202,-58.358,-58.540,-58.463,-58.417,-58.399,-58.257,-58.464,-0.009,0.983,-0.047,-0.244,-0.458,0.214,26.667,3033.000,1.000
-53.436,-53.377,-53.553,-53.742,-53.505,-53.500,-53.535,-53.548,-0.008,0.987,-0.050,-0.183,-0.397,0.275,26.667,3034.000,1.000
-55.134,-54.922,-55.071,-55.400,-55.191,-55.063,-55.215,-55.214,-0.008,0.986,-0.048,-0.183,-0.366,0.214,26.667,3035.000,1.000
-59.361,-59.140,-59.249,-59.588,-59.403,-59.302,-59.401,-59.527,-0.006,0.987,-0.049,-0.153,-0.397,0.153,26.667,3036.000,1.000
-55.826,-55.726,-55.795,-56.032,-55.901,-55.933,-55.915,-55.996,-0.008,0.983,-0.045,-0.183,-0.305,0.244,26.667,3037.000,1.000
-46.340,-46.409,-46.450,-46.475,-46.544,-46.567,-46.559,-46.439,-0.008,0.987,-0.046,-0.183,-0.366,0.305,26.667,3038.000,1.000
-41.781,-42.033,-42.036,-41.902,-42.007,-41.955,-42.130,-41.910,-0.009,0.988,-0.047,-0.092,-0.336,0.183,26.667,3039.000,1.000
-42.713,-43.121,-43.053,-42.926,-42.749,-42.727,-43.090,-42.949,-0.007,0.987,-0.050,-0.122,-0.427,0.183,26.667,3040.000,1.000
-38.428,-38.839,-38.693,-38.629,-38.250,-38.327,-38.662,-38.649,-0.009,0.985,-0.048,-0.122,-0.427,0.366,26.667,3041.000,1.000
-26.522,-26.773,-26.605,-26.526,-26.258,-26.442,-26.528,-26.625,-0.010,0.986,-0.048,-0.061,-0.397,0.244,26.667,3042.000,1.000
-17.635,-17.761,-17.646,-17.527,-17.346,-17.675,-17.523,-17.720,-0.010,0.986,-0.049,-0.092,-0.458,0.214,26.667,3043.000,1.000
-15.814,-15.989,-15.915,-15.875,-15.480,-15.980,-15.732,-15.956,-0.007,0.986,-0.051,-0.183,-0.519,0.153,26.667,3044.000,1.000
-10.725,-11.003,-10.866,-10.980,-10.353,-10.941,-10.679,-10.844,-0.007,0.986,-0.049,-0.092,-0.488,0.214,26.667,3045.000,1.000
2.349,2.096,2.256,2.208,2.712,2.207,2.405,2.253,-0.008,0.985,-0.050,-0.122,-0.458,0.183,26.667,3046.000,1.000
12.572,12.427,12.408,12.665,12.824,12.514,12.554,12.376,-0.006,0.987,-0.051,-0.122,-0.427,0.244,26.667,3047.000,1.000
14.023,13.860,13.712,14.056,13.982,13.844,13.772,13.719,-0.009,0.987,-0.050,-0.153,-0.366,0.183,26.667,3048.000,1.000
17.321,17.000,17.062,17.056,16.921,16.865,16.908,17.050,-0.009,0.986,-0.048,-0.122,-0.427,0.214,26.667,3049.000,1.000
29.212,28.877,29.214,28.797,28.747,28.668,28.946,29.093,-0.007,0.985,-0.050,-0.183,-0.488,0.183,26.667,3050.000,1.000
39.287,39.309,39.566,39.068,39.239,39.015,39.325,39.379,-0.009,0.987,-0.046,-0.153,-0.397,0.275,26.667,3051.000,1.000
39.792,40.256,40.193,39.917,40.198,39.792,39.947,40.017,-0.010,0.985,-0.047,-0.153,-0.366,0.244,26.667,3052.000,1.000
39.971,40.387,40.191,40.212,40.310,39.854,39.939,40.062,-0.010,0.987,-0.046,-0.122,-0.549,0.122,26.667,3053.000,1.000
47.583,47.488,47.475,47.631,47.581,47.261,47.287,47.440,-0.009,0.986,-0.046,-0.122,-0.458,0.214,26.667,3054.000,1.000
54.665,54.284,54.474,54.520,54.621,54.511,54.373,54.603,-0.009,0.986,-0.043,-0.214,-0.427,0.244,26.667,3055.000,1.000
53.793,53.618,53.753,53.641,53.908,53.928,53.718,54.005,-0.009,0.985,-0.045,-0.214,-0.427,0.244,26.667,3056.000,1.000
51.714,51.727,51.711,51.586,51.852,51.830,51.664,51.855,-0.006,0.987,-0.050,-0.183,-0.458,0.214,26.667,3057.000,1.000
56.032,55.882,55.937,55.838,56.131,55.962,55.742,55.813,-0.009,0.985,-0.050,-0.092,-0.366,0.183,26.667,3058.000,1.000
61.285,60.950,61.282,60.996,61.385,61.166,60.827,60.971,-0.008,0.987,-0.048,-0.153,-0.397,0.275,26.667,3059.000,1.000
58.828,58.608,59.115,58.486,58.877,58.737,58.419,58.757,-0.008,0.984,-0.049,-0.153,-0.397,0.366,26.667,3060.000,1.000
52.082,52.149,52.492,51.813,52.091,51.998,51.820,52.249,-0.009,0.985,-0.047,-0.122,-0.397,0.214,26.667,3061.000,1.000
50.298,50.563,50.528,50.267,50.369,50.314,50.218,50.557,-0.008,0.984,-0.047,-0.061,-0.488,0.305,26.667,3062.000,1.000
51.697,51.951,51.784,51.939,51.766,51.878,51.826,51.970,-0.009,0.986,-0.049,-0.183,-0.488,0.214,26.667,3063.000,1.000
46.372,46.480,46.578,46.708,46.302,46.557,46.658,46.635,-0.007,0.985,-0.048,-0.122,-0.519,0.214,26.667,3064.000,1.000
34.744,34.817,35.121,34.902,34.640,34.813,35.067,34.990,-0.007,0.986,-0.051,-0.061,-0.519,0.244,26.667,3065.000,1.000
27.890,28.119,28.278,27.768,27.919,27.941,28.141,28.079,-0.007,0.985,-0.055,-0.031,-0.366,0.214,26.667,3066.000,1.000
27.732,28.012,27.984,27.499,27.806,27.800,27.842,27.785,-0.005,0.985,-0.048,-0.122,-0.397,0.275,26.667,3067.000,1.000
23.165,23.270,23.223,23.001,23.154,23.156,23.172,23.088,-0.006,0.986,-0.047,-0.092,-0.458,0.275,26.667,3068.000,1.000
10.732,10.786,10.712,10.648,10.739,10.658,10.871,10.698,-0.007,0.984,-0.045,-0.153,-0.397,0.214,26.667,3069.000,1.000
2.003,2.281,2.114,1.983,2.162,1.948,2.460,2.143,-0.009,0.987,-0.049,-0.092,-0.427,0.122,26.667,3070.000,1.000
2.610,3.091,2.850,2.689,2.876,2.572,3.168,2.847,-0.010,0.987,-0.047,-0.122,-0.397,0.183,26.667,3071.000,1.000
1.988,2.424,2.182,2.177,2.258,1.955,2.304,2.211,-0.007,0.986,-0.047,-0.244,-0.458,0.214,26.667,3072.000,1.000
-6.533,-6.327,-6.423,-6.278,-6.305,-6.481,-6.460,-6.356,-0.010,0.987,-0.049,-0.214,-0.427,0.244,26.667,3073.000,1.000
-13.547,-13.567,-13.453,-13.335,-13.381,-13.384,-13.562,-13.484,-0.008,0.986,-0.048,-0.122,-0.427,0.275,26.667,3074.000,1.000
-11.629,-11.784,-11.588,-11.571,-11.528,-11.505,-11.731,-11.732,-0.009,0.986,-0.048,-0.092,-0.427,0.275,26.667,3075.000,1.000
-8.805,-9.084,-8.911,-8.820,-8.796,-8.855,-8.955,-8.954,-0.008,0.987,-0.050,-0.122,-0.427,0.305,26.667,3076.000,1.000
-13.101,-13.513,-13.365,-13.017,-13.255,-13.219,-13.154,-13.159,-0.009,0.986,-0.046,-0.153,-0.427,0.305,26.667,3077.000,1.000
-17.842,-18.299,-18.156,-17.713,-18.150,-17.845,-17.813,-17.840,-0.008,0.987,-0.049,-0.244,-0.397,0.244,26.667,3078.000,1.000
-14.454,-14.790,-14.673,-14.439,-14.773,-14.370,-14.458,-14.463,-0.006,0.986,-0.049,-0.214,-0.366,0.122,26.667,3079.000,1.000
-8.580,-8.669,-8.652,-8.620,-8.755,-8.502,-8.520,-8.580,-0.009,0.987,-0.050,-0.214,-0.397,0.122,26.667,3080.000,1.000
-9.565,-9.532,-9.539,-9.535,-9.616,-9.493,-9.295,-9.560,-0.010,0.986,-0.049,-0.183,-0.397,0.122,26.667,3081.000,1.000
-13.183,-13.219,-13.115,-13.145,-13.278,-13.130,-12.791,-13.219,-0.009,0.985,-0.049,-0.183,-0.488,0.244,26.667,3082.000,1.000
-9.837,-9.865,-9.770,-9.873,-10.042,-9.792,-9.513,-9.903,-0.009,0.986,-0.049,-0.122,-0.427,0.183,26.667,3083.000,1.000
-2.722,-2.668,-2.729,-2.798,-2.995,-2.658,-2.569,-2.827,-0.011,0.986,-0.048,-0.153,-0.458,0.183,26.667,3084.000,1.000
-2.438,-2.475,-2.523,-2.488,-2.758,-2.419,-2.408,-2.590,-0.008,0.986,-0.047,-0.244,-0.488,0.092,26.667,3085.000,1.000
-7.372,-7.588,-7.356,-7.335,-7.622,-7.373,-7.294,-7.411,-0.008,0.988,-0.049,-0.214,-0.549,0.183,26.667,3086.000,1.000
-5.895,-6.139,-5.624,-5.770,-5.937,-5.776,-5.706,-5.722,-0.010,0.987,-0.048,-0.122,-0.458,0.275,26.667,3087.000,1.000
2.163,2.023,2.566,2.248,2.236,2.402,2.304,2.320,-0.008,0.986,-0.049,-0.244,-0.458,0.244,26.667,3088.000,1.000
4.466,4.399,4.803,4.377,4.490,4.709,4.411,4.374,-0.009,0.986,-0.050,-0.244,-0.458,0.244,26.667,3089.000,1.000
-1.309,-1.305,-1.004,-1.501,-1.258,-1.109,-1.442,-1.510,-0.009,0.987,-0.048,-0.183,-0.427,0.427,26.667,3090.000,1.000
-3.208,-3.017,-2.828,-3.267,-2.952,-3.003,-3.103,-3.204,-0.009,0.985,-0.049,-0.153,-0.458,0.305,26.667,3091.000,1.000
2.889,3.232,3.309,3.046,3.347,3.129,3.300,3.137,-0.008,0.985,-0.048,-0.183,-0.427,0.244,26.667,3092.000,1.000
6.175,6.390,6.542,6.360,6.609,6.321,6.443,6.395,-0.009,0.985,-0.046,-0.153,-0.458,0.305,26.667,3093.000,1.000
1.668,1.597,1.867,1.752,1.800,1.578,1.340,1.661,-0.009,0.986,-0.048,-0.183,-0.458,0.366,26.667,3094.000,1.000
-0.414,-0.656,-0.513,-0.324,-0.612,-0.655,-1.178,-0.587,-0.008,0.986,-0.049,-0.183,-0.427,0.305,26.667,3095.000,1.000
5.959,5.656,5.611,6.085,5.679,5.702,5.269,5.755,-0.009,0.986,-0.049,-0.122,-0.519,0.275,26.667,3096.000,1.000
11.014,10.720,10.653,11.031,10.897,10.812,10.701,10.915,-0.008,0.988,-0.048,-0.092,-0.427,0.336,26.667,3097.000,1.000
7.245,7.130,7.009,7.194,7.409,7.285,7.315,7.393,-0.010,0.986,-0.050,-0.214,-0.427,0.305,26.667,3098.000,1.000
3.121,3.211,2.936,3.234,3.515,3.459,3.358,3.460,-0.007,0.987,-0.047,-0.183,-0.458,0.183,26.667,3099.000,1.000
6.847,6.903,6.608,7.114,7.229,7.143,6.954,7.107,-0.007,0.984,-0.046,-0.183,-0.488,0.153,26.667,3100.000,1.000
11.461,11.373,11.182,11.655,11.609,11.504,11.358,11.479,-0.007,0.988,-0.049,-0.214,-0.519,0.275,26.667,3101.000,1.000
8.795,8.722,8.521,8.863,8.703,8.848,8.672,8.678,-0.009,0.986,-0.045,-0.183,-0.519,0.244,26.667,3102.000,1.000
4.638,4.702,4.356,4.682,4.494,4.867,4.684,4.629,-0.009,0.986,-0.050,-0.183,-0.458,0.244,26.667,3103.000,1.000
7.233,7.376,6.969,7.295,7.217,7.370,7.432,7.421,-0.007,0.985,-0.050,-0.092,-0.488,0.305,26.667,3104.000,1.000
12.096,12.178,11.951,12.191,12.188,11.912,12.252,12.332,-0.007,0.987,-0.052,-0.183,-0.519,0.244,26.667,3105.000,1.000
10.706,10.719,10.705,10.876,10.790,10.386,10.673,10.878,-0.007,0.987,-0.050,-0.183,-0.488,0.275,26.667,3106.000,1.000
6.208,6.371,6.318,6.485,6.270,6.091,6.073,6.352,-0.008,0.987,-0.050,-0.305,-0.519,0.214,26.667,3107.000,1.000
7.706,8.152,7.923,8.134,7.735,7.875,7.673,7.877,-0.008,0.987,-0.049,-0.183,-0.488,0.275,26.667,3108.000,1.000
13.285,13.790,13.528,13.804,13.185,13.510,13.398,13.479,-0.008,0.987,-0.048,-0.183,-0.549,0.153,26.667,3109.000,1.000
12.861,13.139,12.985,13.223,12.619,12.853,12.902,12.989,-0.008,0.987,-0.050,-0.214,-0.580,0.214,26.667,3110.000,1.000
6.740,6.778,6.732,6.846,6.463,6.476,6.521,6.709,-0.009,0.984,-0.052,-0.153,-0.397,0.183,26.667,3111.000,1.000
5.892,5.839,5.835,5.918,5.638,5.657,5.501,5.724,-0.010,0.987,-0.050,-0.183,-0.458,0.092,26.667,3112.000,1.000
12.125,12.062,12.012,12.128,11.848,12.124,11.755,11.924,-0.011,0.985,-0.050,-0.153,-0.458,0.183,26.667,3113.000,1.000
13.946,13.870,13.768,13.810,13.615,14.021,13.719,13.866,-0.010,0.987,-0.051,-0.153,-0.397,0.183,26.667,3114.000,1.000
6.910,6.895,6.890,6.744,6.649,6.833,6.901,7.091,-0.009,0.986,-0.050,-0.061,-0.427,0.214,26.667,3115.000,1.000
1.867,2.049,2.230,1.929,1.862,1.658,1.993,2.224,-0.008,0.988,-0.051,-0.244,-0.366,0.183,26.667,3116.000,1.000
5.169,5.473,5.701,5.364,5.364,4.923,5.155,5.436,-0.008,0.987,-0.048,-0.214,-0.427,0.214,26.667,3117.000,1.000
7.545,7.703,7.778,7.535,7.655,7.287,7.278,7.605,-0.008,0.989,-0.046,-0.092,-0.458,0.214,26.667,3118.000,1.000
2.355,2.259,2.109,2.140,2.247,2.145,2.035,2.295,-0.010,0.987,-0.048,-0.153,-0.488,0.214,26.667,3119.000,1.000
-2.262,-2.454,-2.763,-2.406,-2.473,-2.351,-2.516,-2.382,-0.009,0.988,-0.051,-0.244,-0.488,0.183,26.667,3120.000,1.000
0.084,0.057,-0.325,0.111,-0.108,0.099,-0.185,-0.083,-0.009,0.986,-0.052,-0.214,-0.427,0.214,26.667,3121.000,1.000
1.725,1.939,1.532,1.792,1.552,1.707,1.446,1.497,-0.006,0.988,-0.050,-0.122,-0.488,0.214,26.667,3122.000,1.000
-4.264,-4.040,-4.396,-4.333,-4.466,-4.492,-4.463,-4.638,-0.008,0.986,-0.047,-0.092,-0.427,0.214,26.667,3123.000,1.000
-11.087,-11.018,-11.255,-11.339,-11.361,-11.514,-11.175,-11.541,-0.008,0.985,-0.051,-0.153,-0.366,0.275,26.667,3124.000,1.000
-10.952,-10.844,-11.049,-11.190,-11.273,-11.284,-10.909,-11.140,-0.008,0.985,-0.049,-0.153,-0.458,0.336,26.667,3125.000,1.000
-9.417,-9.073,-9.387,-9.384,-9.634,-9.402,-9.259,-9.188,-0.007,0.987,-0.050,-0.183,-0.458,0.275,26.667,3126.000,1.000
-14.877,-14.494,-14.835,-14.593,-14.911,-14.652,-14.724,-14.604,-0.008,0.987,-0.049,-0.153,-0.458,0.305,26.667,3127.000,1.000
-22.611,-22.486,-22.653,-22.341,-22.585,-22.498,-22.490,-22.639,-0.007,0.986,-0.048,-0.153,-0.488,0.244,26.667,3128.000,1.000
-23.037,-23.133,-23.176,-22.941,-23.041,-23.099,-22.814,-23.250,-0.007,0.987,-0.044,-0.183,-0.488,0.214,26.667,3129.000,1.000
-19.095,-19.175,-19.325,-19.111,-19.123,-19.190,-18.780,-19.300,-0.009,0.987,-0.047,-0.214,-0.397,0.214,26.667,3130.000,1.000
-20.857,-20.802,-21.052,-20.885,-20.941,-20.967,-20.608,-21.010,-0.009,0.986,-0.050,-0.153,-0.488,0.122,26.667,3131.000,1.000
-26.984,-26.916,-26.993,-27.043,-27.177,-27.196,-26.886,-27.020,-0.007,0.987,-0.050,-0.122,-0.458,0.092,26.667,3132.000,1.000
-26.721,-26.827,-26.627,-26.880,-27.030,-27.035,-26.802,-26.614,-0.008,0.987,-0.049,-0.092,-0.427,0.122,26.667,3133.000,1.000
-19.422,-19.656,-19.426,-19.680,-19.803,-19.798,-19.614,-19.384,-0.008,0.986,-0.050,-0.214,-0.397,0.244,26.667,3134.000,1.000
-16.328,-16.524,-16.474,-16.644,-16.680,-16.728,-16.472,-16.635,-0.008,0.984,-0.049,-0.092,-0.519,0.305,26.667,3135.000,1.000
-20.247,-20.379,-20.396,-20.549,-20.451,-20.519,-20.376,-20.809,-0.008,0.986,-0.046,-0.092,-0.549,0.183,26.667,3136.000,1.000
-20.397,-20.550,-20.404,-20.577,-20.405,-20.459,-20.655,-20.844,-0.008,0.986,-0.049,-0.183,-0.519,0.122,26.667,3137.000,1.000
-13.121,-13.344,-13.044,-13.126,-12.977,-13.191,-13.400,-13.312,-0.010,0.984,-0.051,-0.183,-0.458,0.214,26.667,3138.000,1.000
-9.222,-9.481,-9.283,-9.111,-9.085,-9.490,-9.325,-9.296,-0.010,0.987,-0.051,-0.183,-0.458,0.336,26.667,3139.000,1.000
-13.529,-13.746,-13.767,-13.456,-13.604,-13.813,-13.448,-13.563,-0.010,0.987,-0.050,-0.275,-0.458,0.244,26.667,3140.000,1.000
-15.872,-16.001,-16.050,-15.990,-16.127,-15.915,-15.709,-15.802,-0.008,0.987,-0.047,-0.275,-0.397,0.244,26.667,3141.000,1.000
-10.451,-10.450,-10.400,-10.723,-10.526,-10.278,-10.289,-10.259,-0.011,0.985,-0.050,-0.214,-0.336,0.305,26.667,3142.000,1.000
-6.446,-6.304,-6.281,-6.704,-6.129,-6.214,-6.336,-6.241,-0.013,0.988,-0.050,-0.244,-0.397,0.244,26.667,3143.000,1.000
-10.234,-10.128,-10.200,-10.523,-9.830,-10.031,-10.207,-10.163,-0.012,0.986,-0.046,-0.275,-0.397,0.336,26.667,3144.000,1.000
-13.393,-13.514,-13.580,-13.933,-13.280,-13.266,-13.394,-13.496,-0.008,0.985,-0.051,-0.183,-0.427,0.214,26.667,3145.000,1.000
-8.577,-8.788,-8.816,-9.272,-8.640,-8.532,-8.446,-8.687,-0.007,0.986,-0.047,-0.275,-0.427,0.366,26.667,3146.000,1.000
-3.199,-3.250,-3.264,-3.588,-3.087,-3.151,-2.918,-3.109,-0.008,0.987,-0.050,-0.275,-0.366,0.305,26.667,3147.000,1.000
-5.897,-5.860,-5.764,-5.780,-5.556,-5.803,-5.696,-5.682,-0.009,0.986,-0.049,-0.183,-0.397,0.183,26.667,3148.000,1.000
-11.125,-11.266,-10.993,-10.859,-10.761,-11.068,-11.127,-11.110,-0.008,0.984,-0.048,-0.214,-0.427,0.183,26.667,3149.000,1.000
-10.067,-10.434,-10.112,-9.993,-9.816,-10.012,-10.115,-10.367,-0.008,0.985,-0.047,-0.092,-0.488,0.244,26.667,3150.000,1.000
-7.206,-7.583,-7.256,-7.115,-6.996,-6.945,-7.145,-7.505,-0.011,0.986,-0.048,-0.153,-0.427,0.305,26.667,3151.000,1.000
-11.886,-12.084,-11.608,-11.458,-11.565,-11.422,-11.779,-11.863,-0.009,0.986,-0.050,-0.092,-0.366,0.244,26.667,3152.000,1.000
-20.263,-20.320,-19.728,-19.701,-19.833,-19.872,-20.299,-20.014,-0.008,0.986,-0.048,-0.153,-0.458,0.153,26.667,3153.000,1.000
-21.072,-21.144,-20.620,-20.821,-20.722,-20.921,-21.294,-20.891,-0.008,0.985,-0.046,-0.092,-0.519,0.305,26.667,3154.000,1.000
-15.822,-15.958,-15.502,-15.949,-15.729,-15.859,-16.041,-15.825,-0.007,0.986,-0.050,-0.122,-0.519,0.244,26.667,3155.000,1.000
-16.559,-16.639,-16.260,-16.774,-16.669,-16.646,-16.605,-16.687,-0.008,0.987,-0.050,-0.092,-0.427,0.183,26.667,3156.000,1.000
-24.036,-23.944,-23.859,-24.121,-24.097,-24.033,-23.929,-24.230,-0.010,0.987,-0.049,-0.092,-0.397,0.275,26.667,3157.000,1.000
-26.022,-25.842,-26.061,-26.001,-25.924,-25.945,-25.869,-26.246,-0.008,0.987,-0.048,-0.092,-0.488,0.336,26.667,3158.000,1.000
-19.794,-19.753,-19.840,-19.792,-19.663,-19.815,-19.690,-19.946,-0.010,0.986,-0.049,-0.092,-0.458,0.397,26.667,3159.000,1.000
-17.295,-17.551,-17.143,-17.391,-17.245,-17.467,-17.319,-17.336,-0.008,0.989,-0.050,-0.031,-0.458,0.244,26.667,3160.000,1.000
-22.763,-23.255,-22.565,-22.906,-22.868,-22.993,-22.923,-22.808,-0.009,0.988,-0.050,-0.061,-0.458,0.275,26.667,3161.000,1.000
-25.039,-25.528,-25.056,-25.124,-25.326,-25.266,-25.238,-25.111,-0.007,0.989,-0.049,-0.061,-0.458,0.214,26.667,3162.000,1.000
-19.063,-19.391,-19.296,-19.092,-19.340,-19.200,-19.177,-19.026,-0.008,0.986,-0.051,-0.122,-0.488,0.183,26.667,3163.000,1.000
-15.373,-15.533,-15.633,-15.372,-15.401,-15.271,-15.293,-15.165,-0.006,0.985,-0.053,-0.183,-0.427,0.153,26.667,3164.000,1.000
-19.942,-19.915,-20.115,-19.861,-19.777,-19.656,-19.639,-19.675,-0.008,0.983,-0.049,-0.183,-0.366,0.183,26.667,3165.000,1.000
-23.050,-22.808,-23.162,-22.862,-22.849,-22.841,-22.636,-22.813,-0.009,0.987,-0.052,-0.244,-0.427,0.214,26.667,3166.000,1.000
-17.789,-17.429,-17.858,-17.514,-17.511,-17.650,-17.411,-17.495,-0.008,0.986,-0.050,-0.275,-0.488,0.244,26.667,3167.000,1.000
-12.792,-12.549,-12.803,-12.488,-12.454,-12.467,-12.598,-12.443,-0.009,0.988,-0.051,-0.153,-0.519,0.214,26.667,3168.000,1.000
-15.832,-15.901,-15.858,-15.616,-15.666,-15.361,-15.941,-15.677,-0.008,0.987,-0.049,-0.153,-0.458,0.183,26.667,3169.000,1.000
-19.543,-19.822,-19.665,-19.429,-19.638,-19.243,-19.832,-19.651,-0.010,0.988,-0.048,-0.183,-0.336,0.183,26.667,3170.000,1.000
-15.326,-15.489,-15.466,-15.224,-15.502,-15.230,-15.528,-15.391,-0.009,0.985,-0.049,-0.183,-0.427,0.275,26.667,3171.000,1.000
-9.007,-8.907,-9.086,-8.994,-9.098,-8.820,-9.056,-8.809,-0.010,0.987,-0.047,-0.183,-0.458,0.275,26.667,3172.000,1.000
-9.561,-9.313,-9.634,-9.794,-9.556,-9.152,-9.564,-9.221,-0.010,0.986,-0.049,-0.061,-0.397,0.214,26.667,3173.000,1.000
-12.223,-11.969,-12.307,-12.622,-12.176,-11.803,-12.181,-11.993,-0.009,0.986,-0.049,-0.122,-0.397,0.305,26.667,3174.000,1.000
-7.101,-6.886,-7.116,-7.418,-7.056,-6.865,-6.868,-7.138,-0.008,0.985,-0.045,-0.122,-0.366,0.214,26.667,3175.000,1.000
2.554,2.745,2.584,2.400,2.538,2.650,3.007,2.290,-0.008,0.986,-0.050,-0.244,-0.458,0.214,26.667,3176.000,1.000
5.541,5.735,5.478,5.408,5.505,5.608,5.993,5.288,-0.007,0.984,-0.047,-0.183,-0.427,0.214,26.667,3177.000,1.000
2.261,2.472,2.073,2.072,2.398,2.347,2.490,2.252,-0.009,0.985,-0.047,-0.153,-0.397,0.153,26.667,3178.000,1.000
3.509,3.759,3.359,3.408,3.822,3.652,3.514,3.679,-0.008,0.987,-0.048,-0.214,-0.488,0.244,26.667,3179.000,1.000
10.414,10.688,10.412,10.462,10.593,10.586,10.351,10.459,-0.008,0.988,-0.045,-0.244,-0.458,0.305,26.667,3180.000,1.000
12.193,12.407,12.190,12.234,12.127,12.280,12.230,12.067,-0.007,0.986,-0.047,-0.183,-0.427,0.305,26.667,3181.000,1.000
6.460,6.554,6.274,6.450,6.362,6.422,6.603,6.428,-0.009,0.987,-0.046,-0.122,-0.458,0.214,26.667,3182.000,1.000
4.122,4.130,3.806,4.150,3.995,3.995,4.179,4.218,-0.007,0.988,-0.047,-0.153,-0.458,0.336,26.667,3183.000,1.000
8.684,8.683,8.461,8.683,8.318,8.509,8.531,8.687,-0.008,0.987,-0.048,-0.183,-0.427,0.336,26.667,3184.000,1.000
9.111,9.155,9.151,8.975,8.638,8.990,8.940,9.023,-0.005,0.990,-0.047,-0.183,-0.458,0.275,26.667,3185.000,1.000
0.830,0.877,1.086,0.598,0.690,0.839,0.864,0.803,-0.007,0.986,-0.049,-0.183,-0.397,0.214,26.667,3186.000,1.000
-4.506,-4.565,-4.216,-4.771,-4.197,-4.428,-4.404,-4.527,-0.007,0.986,-0.052,-0.183,-0.427,0.336,26.667,3187.000,1.000
0.317,0.165,0.554,0.089,0.688,0.364,0.236,0.218,-0.007,0.986,-0.050,-0.183,-0.275,0.275,26.667,3188.000,1.000
4.372,4.318,4.599,4.288,4.420,4.277,4.153,4.334,-0.009,0.987,-0.047,-0.153,-0.366,0.183,26.667,3189.000,1.000
-1.493,-1.337,-1.214,-1.431,-1.730,-1.814,-1.661,-1.364,-0.009,0.986,-0.045,-0.183,-0.305,0.122,26.667,3190.000,1.000
-6.372,-6.244,-6.087,-6.335,-6.622,-6.823,-6.489,-6.245,-0.010,0.987,-0.047,-0.092,-0.519,0.122,26.667,3191.000,1.000
0.649,0.423,0.804,0.526,0.554,0.271,0.509,0.596,-0.010,0.988,-0.047,-0.031,-0.519,0.183,26.667,3192.000,1.000
8.455,8.038,8.499,8.283,8.549,8.256,8.430,8.368,-0.009,0.989,-0.048,-0.153,-0.427,0.275,26.667,3193.000,1.000
4.402,4.272,4.509,4.369,4.617,4.339,4.676,4.532,-0.008,0.987,-0.045,-0.122,-0.458,0.244,26.667,3194.000,1.000
-1.207,-0.946,-1.010,-1.060,-0.995,-1.204,-0.740,-0.903,-0.009,0.986,-0.047,-0.122,-0.336,0.244,26.667,3195.000,1.000
5.550,5.850,5.628,5.760,5.718,5.614,5.891,5.735,-0.010,0.986,-0.047,-0.092,-0.397,0.153,26.667,3196.000,1.000
16.067,16.068,15.895,16.140,16.199,16.174,16.119,15.964,-0.009,0.986,-0.046,-0.092,-0.336,0.214,26.667,3197.000,1.000
15.315,15.042,15.066,15.151,15.374,15.408,15.202,15.050,-0.008,0.986,-0.047,-0.061,-0.458,0.214,26.667,3198.000,1.000
9.143,8.925,9.024,8.892,9.122,9.231,8.985,8.919,-0.007,0.987,-0.049,0.000,-0.488,0.122,26.667,3199.000,1.000
12.670,12.777,12.670,12.562,12.699,12.869,12.465,12.567,-0.008,0.985,-0.047,-0.031,-0.397,0.153,26.667,3200.000,1.000
22.849,23.216,22.901,22.940,23.074,23.212,22.686,22.883,-0.008,0.987,-0.049,-0.092,-0.488,0.214,26.667,3201.000,1.000
24.993,25.370,25.160,25.191,25.340,25.381,25.018,25.197,-0.010,0.986,-0.048,-0.061,-0.488,0.214,26.667,3202.000,1.000
19.346,19.635,19.702,19.606,19.570,19.645,19.571,19.705,-0.011,0.987,-0.049,-0.153,-0.580,0.336,26.667,3203.000,1.000
19.984,20.214,20.406,20.302,19.984,20.246,20.297,20.412,-0.007,0.988,-0.049,-0.092,-0.519,0.244,26.667,3204.000,1.000
29.305,29.448,29.589,29.648,29.263,29.555,29.590,29.777,-0.008,0.986,-0.050,-0.183,-0.458,0.244,26.667,3205.000,1.000
33.846,33.896,33.955,34.157,33.956,33.984,34.000,34.312,-0.008,0.985,-0.050,-0.122,-0.519,0.397,26.667,3206.000,1.000
28.920,28.984,28.958,29.074,29.135,28.914,28.874,29.200,-0.007,0.986,-0.051,-0.092,-0.488,0.244,26.667,3207.000,1.000
26.917,27.072,26.960,26.851,27.147,26.893,26.747,27.001,-0.009,0.985,-0.051,-0.183,-0.397,0.183,26.667,3208.000,1.000
33.718,33.868,33.714,33.637,33.962,33.695,33.574,33.788,-0.010,0.986,-0.050,-0.214,-0.397,0.275,26.667,3209.000,1.000
37.912,37.897,37.760,38.086,38.051,37.707,37.809,37.916,-0.009,0.984,-0.046,-0.244,-0.427,0.275,26.667,3210.000,1.000
32.652,32.511,32.404,33.108,32.591,32.268,32.592,32.464,-0.010,0.985,-0.049,-0.244,-0.458,0.275,26.667,3211.000,1.000
27.942,27.859,27.772,28.472,27.879,27.622,28.018,27.714,-0.010,0.989,-0.046,-0.275,-0.458,0.275,26.667,3212.000,1.000
31.431,31.486,31.397,31.784,31.575,31.269,31.609,31.296,-0.009,0.986,-0.047,-0.153,-0.458,0.275,26.667,3213.000,1.000
35.156,35.369,35.217,35.311,35.470,35.140,35.328,35.078,-0.007,0.987,-0.046,-0.092,-0.427,0.305,26.667,3214.000,1.000
31.729,32.080,31.884,31.893,32.045,31.920,31.933,31.743,-0.009,0.986,-0.048,-0.183,-0.488,0.244,26.667,3215.000,1.000
27.942,28.225,28.121,28.155,28.053,28.211,28.172,28.011,-0.007,0.988,-0.049,-0.214,-0.458,0.183,26.667,3216.000,1.000
31.472,31.459,31.504,31.540,31.301,31.485,31.507,31.313,-0.007,0.983,-0.048,-0.214,-0.427,0.061,26.667,3217.000,1.000
37.040,36.726,36.907,36.883,36.764,36.693,36.727,36.503,-0.007,0.988,-0.051,-0.183,-0.427,0.153,26.667,3218.000,1.000
36.199,35.700,36.088,35.958,35.956,35.761,35.751,35.511,-0.007,0.985,-0.047,-0.153,-0.458,0.183,26.667,3219.000,1.000
31.845,31.261,31.853,31.680,31.525,31.586,31.591,31.278,-0.010,0.987,-0.049,-0.122,-0.397,0.153,26.667,3220.000,1.000
32.433,31.888,32.396,32.379,31.989,32.309,32.333,32.037,-0.007,0.986,-0.048,-0.061,-0.427,0.153,26.667,3221.000,1.000
36.627,36.270,36.378,36.646,36.304,36.467,36.402,36.361,-0.007,0.987,-0.050,-0.092,-0.458,0.122,26.667,3222.000,1.000
35.764,35.638,35.445,35.868,35.775,35.576,35.438,35.603,-0.008,0.985,-0.046,-0.153,-0.519,0.183,26.667,3223.000,1.000
29.985,29.956,29.878,30.206,30.182,29.877,29.829,29.898,-0.008,0.986,-0.049,-0.153,-0.488,0.153,26.667,3224.000,1.000
28.518,28.476,28.673,28.819,28.613,28.471,28.573,28.529,-0.008,0.984,-0.050,-0.092,-0.458,0.153,26.667,3225.000,1.000
32.986,32.985,33.173,33.279,32.896,32.885,33.043,33.157,-0.010,0.986,-0.049,-0.122,-0.427,0.183,26.667,3226.000,1.000
34.408,34.461,34.419,34.633,34.221,34.263,34.318,34.663,-0.008,0.985,-0.048,-0.061,-0.488,0.153,26.667,3227.000,1.000
29.870,29.841,29.765,30.026,29.660,29.846,29.673,30.045,-0.007,0.984,-0.048,-0.153,-0.488,0.153,26.667,3228.000,1.000
27.683,27.569,27.676,27.839,27.512,27.838,27.569,27.796,-0.008,0.985,-0.047,-0.031,-0.336,0.275,26.667,3229.000,1.000
31.201,31.245,31.400,31.440,31.174,31.413,31.351,31.444,-0.009,0.984,-0.047,-0.092,-0.427,0.275,26.667,3230.000,1.000
32.196,32.525,32.490,32.508,32.333,32.323,32.562,32.569,-0.009,0.986,-0.049,-0.122,-0.488,0.244,26.667,3231.000,1.000
26.774,27.218,26.943,27.081,26.895,26.750,27.097,27.030,-0.007,0.984,-0.050,-0.092,-0.488,0.153,26.667,3232.000,1.000
23.254,23.641,23.254,23.476,23.199,23.131,23.296,23.262,-0.007,0.985,-0.047,-0.092,-0.427,0.214,26.667,3233.000,1.000
26.483,26.820,26.477,26.529,26.307,26.331,26.215,26.381,-0.007,0.986,-0.047,-0.092,-0.488,0.336,26.667,3234.000,1.000
28.557,28.905,28.578,28.408,28.397,28.365,28.165,28.530,-0.008,0.986,-0.050,-0.092,-0.488,0.244,26.667,3235.000,1.000
23.339,23.719,23.253,23.156,23.301,23.178,23.049,23.433,-0.007,0.984,-0.050,-0.061,-0.519,0.214,26.667,3236.000,1.000
17.530,17.902,17.415,17.464,17.648,17.531,17.443,17.705,-0.008,0.985,-0.049,-0.214,-0.519,0.244,26.667,3237.000,1.000
18.526,18.755,18.616,18.453,18.628,18.604,18.567,18.703,-0.007,0.986,-0.048,-0.244,-0.488,0.244,26.667,3238.000,1.000
21.542,21.542,21.736,21.229,21.397,21.496,21.545,21.584,-0.005,0.987,-0.050,-0.214,-0.427,0.244,26.667,3239.000,1.000
18.680,18.595,18.628,18.139,18.319,18.520,18.548,18.492,-0.007,0.987,-0.046,-0.183,-0.397,0.183,26.667,3240.000,1.000
12.843,12.884,12.535,12.324,12.473,12.761,12.605,12.580,-0.007,0.986,-0.046,-0.214,-0.488,0.122,26.667,3241.000,1.000
11.767,11.919,11.563,11.414,11.480,11.859,11.526,11.699,-0.008,0.984,-0.048,-0.275,-0.397,0.336,26.667,3242.000,1.000
13.803,13.840,13.865,13.515,13.567,13.926,13.647,13.918,-0.007,0.984,-0.049,-0.214,-0.397,0.305,26.667,3243.000,1.000
11.518,11.334,11.638,11.268,11.322,11.473,11.482,11.632,-0.007,0.983,-0.050,-0.153,-0.366,0.214,26.667,3244.000,1.000
6.332,6.139,6.386,6.378,6.266,6.200,6.461,6.505,-0.008,0.987,-0.051,-0.183,-0.488,0.183,26.667,3245.000,1.000
6.416,6.427,6.558,6.881,6.546,6.484,6.707,6.738,-0.009,0.985,-0.044,-0.183,-0.458,0.214,26.667,3246.000,1.000
10.803,10.961,11.089,11.325,11.000,11.121,11.110,11.055,-0.008,0.985,-0.051,-0.244,-0.458,0.214,26.667,3247.000,1.000
9.949,10.125,10.165,10.110,9.995,10.237,10.100,9.920,-0.008,0.984,-0.049,-0.214,-0.458,0.244,26.667,3248.000,1.000
3.312,3.398,3.302,3.136,3.172,3.313,3.295,3.073,-0.009,0.985,-0.052,-0.214,-0.488,0.122,26.667,3249.000,1.000
1.088,1.018,0.996,0.914,0.940,0.893,1.071,0.828,-0.006,0.985,-0.050,-0.031,-0.488,0.183,26.667,3250.000,1.000
5.537,5.396,5.553,5.558,5.442,5.474,5.622,5.350,-0.007,0.985,-0.048,-0.031,-0.488,0.305,26.667,3251.000,1.000
6.386,6.231,6.442,6.429,6.170,6.502,6.406,6.210,-0.007,0.986,-0.048,-0.122,-0.488,0.305,26.667,3252.000,1.000
-0.175,-0.445,-0.288,-0.441,-0.539,-0.222,-0.416,-0.455,-0.010,0.986,-0.046,-0.183,-0.397,0.305,26.667,3253.000,1.000
-4.294,-4.684,-4.645,-4.934,-4.544,-4.671,-4.698,-4.702,-0.009,0.984,-0.047,-0.183,-0.458,0.336,26.667,3254.000,1.000
-1.434,-1.681,-1.805,-2.014,-1.370,-1.788,-1.643,-1.780,-0.009,0.987,-0.048,-0.153,-0.519,0.305,26.667,3255.000,1.000
-1.049,-0.909,-1.092,-1.096,-0.788,-0.958,-0.863,-1.032,-0.008,0.988,-0.047,-0.214,-0.458,0.275,26.667,3256.000,1.000
-7.961,-7.630,-7.627,-7.641,-7.809,-7.505,-7.623,-7.557,-0.010,0.988,-0.048,-0.092,-0.488,0.244,26.667,3257.000,1.000
-13.018,-12.933,-12.660,-12.848,-13.085,-12.617,-12.829,-12.556,-0.010,0.987,-0.048,-0.183,-0.427,0.305,26.667,3258.000,1.000
-10.811,-11.061,-10.739,-10.931,-10.949,-10.678,-10.713,-10.544,-0.009,0.986,-0.050,-0.153,-0.427,0.214,26.667,3259.000,1.000
-10.007,-10.330,-10.177,-10.235,-10.128,-10.050,-9.837,-9.922,-0.007,0.987,-0.052,-0.122,-0.488,0.275,26.667,3260.000,1.000
-17.171,-17.398,-17.355,-17.392,-17.286,-17.262,-16.966,-17.171,-0.008,0.987,-0.049,-0.092,-0.427,0.214,26.667,3261.000,1.000
-24.619,-24.735,-24.724,-24.781,-24.687,-24.712,-24.481,-24.624,-0.009,0.986,-0.047,-0.061,-0.488,0.244,26.667,3262.000,1.000
-23.882,-23.854,-24.038,-23.943,-23.867,-23.966,-23.809,-23.907,-0.009,0.986,-0.050,-0.153,-0.397,0.275,26.667,3263.000,1.000
-20.215,-20.079,-20.471,-20.198,-20.101,-20.196,-20.144,-20.325,-0.008,0.986,-0.050,-0.183,-0.397,0.183,26.667,3264.000,1.000
-22.996,-22.938,-23.173,-22.972,-22.763,-22.781,-22.943,-23.133,-0.010,0.984,-0.051,-0.183,-0.427,0.153,26.667,3265.000,1.000
-29.283,-29.321,-29.318,-29.286,-28.965,-29.018,-29.274,-29.313,-0.008,0.984,-0.052,-0.092,-0.427,0.275,26.667,3266.000,1.000
-29.897,-29.819,-29.983,-29.942,-29.614,-29.850,-29.922,-29.812,-0.007,0.984,-0.050,-0.122,-0.549,0.244,26.667,3267.000,1.000
-26.997,-26.790,-27.217,-27.136,-26.877,-27.169,-27.145,-26.877,-0.008,0.987,-0.049,-0.214,-0.519,0.244,26.667,3268.000,1.000
-30.488,-30.302,-30.668,-30.662,-30.499,-30.553,-30.755,-30.328,-0.010,0.986,-0.046,-0.244,-0.458,0.183,26.667,3269.000,1.000
-39.646,-39.445,-39.684,-39.663,-39.613,-39.381,-39.678,-39.380,-0.008,0.989,-0.049,-0.244,-0.427,0.244,26.667,3270.000,1.000
-43.959,-43.796,-44.027,-43.824,-43.841,-43.607,-43.552,-43.657,-0.007,0.986,-0.048,-0.183,-0.458,0.214,26.667,3271.000,1.000
-41.971,-42.143,-42.221,-41.925,-41.844,-41.878,-41.493,-41.814,-0.008,0.987,-0.048,-0.153,-0.366,0.275,26.667,3272.000,1.000
-43.889,-44.336,-44.162,-43.986,-43.671,-43.972,-43.740,-43.893,-0.009,0.985,-0.050,-0.244,-0.427,0.153,26.667,3273.000,1.000
-53.088,-53.255,-53.096,-53.077,-52.635,-53.009,-53.126,-53.006,-0.008,0.985,-0.051,-0.214,-0.427,0.122,26.667,3274.000,1.000
-59.853,-59.533,-59.618,-59.563,-59.289,-59.537,-59.773,-59.495,-0.008,0.984,-0.052,-0.183,-0.427,0.183,26.667,3275.000,1.000
-58.732,-58.412,-58.628,-58.304,-58.347,-58.488,-58.573,-58.331,-0.009,0.984,-0.050,-0.214,-0.488,0.336,26.667,3276.000,1.000
-58.063,-58.134,-58.327,-57.815,-57.931,-58.227,-58.006,-58.033,-0.007,0.984,-0.048,-0.244,-0.519,0.244,26.667,3277.000,1.000
-64.026,-64.311,-64.501,-64.204,-64.014,-64.519,-64.091,-64.416,-0.007,0.984,-0.050,-0.214,-0.549,0.183,26.667,3278.000,1.000
-69.113,-69.349,-69.526,-69.647,-69.200,-69.508,-69.262,-69.643,-0.008,0.986,-0.050,-0.244,-0.427,0.183,26.667,3279.000,1.000
-66.923,-67.072,-67.108,-67.423,-67.126,-67.006,-67.148,-67.381,-0.009,0.985,-0.048,-0.092,-0.336,0.275,26.667,3280.000,1.000
-64.432,-64.536,-64.359,-64.590,-64.586,-64.411,-64.719,-64.778,-0.008,0.988,-0.050,-0.122,-0.336,0.336,26.667,3281.000,1.000
-68.187,-68.321,-68.038,-68.147,-68.219,-68.342,-68.589,-68.483,-0.010,0.986,-0.051,-0.092,-0.397,0.214,26.667,3282.000,1.000
-71.473,-71.691,-71.534,-71.559,-71.554,-71.841,-72.080,-71.815,-0.010,0.988,-0.049,-0.183,-0.488,0.183,26.667,3283.000,1.000
-67.184,-67.426,-67.517,-67.412,-67.383,-67.565,-67.877,-67.584,-0.009,0.986,-0.049,-0.092,-0.427,0.244,26.667,3284.000,1.000
-61.986,-62.246,-62.432,-62.213,-62.205,-62.271,-62.525,-62.383,-0.008,0.986,-0.049,0.000,-0.366,0.305,26.667,3285.000,1.000
-64.552,-64.942,-64.967,-64.760,-64.729,-64.899,-64.898,-64.897,-0.008,0.986,-0.047,-0.092,-0.458,0.244,26.667,3286.000,1.000
-69.338,-69.806,-69.596,-69.499,-69.473,-69.795,-69.613,-69.622,-0.006,0.987,-0.047,-0.153,-0.427,0.092,26.667,3287.000,1.000
-66.385,-66.702,-66.442,-66.460,-66.539,-66.666,-66.648,-66.650,-0.007,0.984,-0.046,-0.244,-0.458,0.092,26.667,3288.000,1.000
-59.076,-59.186,-59.125,-59.120,-59.301,-58.983,-59.261,-59.334,-0.006,0.987,-0.047,-0.214,-0.336,0.214,26.667,3289.000,1.000
-57.348,-57.467,-57.577,-57.343,-57.604,-57.083,-57.364,-57.520,-0.007,0.988,-0.048,-0.183,-0.397,0.305,26.667,3290.000,1.000
-59.660,-59.975,-60.010,-59.566,-59.940,-59.614,-59.592,-59.726,-0.008,0.988,-0.048,-0.244,-0.458,0.244,26.667,3291.000,1.000
-56.657,-57.107,-56.981,-56.658,-57.035,-56.990,-56.730,-56.725,-0.007,0.987,-0.048,-0.214,-0.519,0.153,26.667,3292.000,1.000
-48.926,-49.302,-49.074,-49.106,-49.332,-49.340,-49.088,-48.977,-0.009,0.988,-0.050,-0.244,-0.488,0.092,26.667,3293.000,1.000
-45.740,-45.952,-45.611,-45.841,-45.973,-45.850,-45.685,-45.658,-0.008,0.988,-0.048,-0.183,-0.488,0.183,26.667,3294.000,1.000
-47.146,-47.304,-46.837,-47.072,-47.175,-47.008,-46.855,-47.027,-0.008,0.987,-0.048,-0.122,-0.427,0.275,26.667,3295.000,1.000
-43.262,-43.445,-42.917,-43.185,-43.195,-43.134,-42.951,-43.205,-0.010,0.987,-0.048,-0.122,-0.397,0.244,26.667,3296.000,1.000
-33.014,-33.094,-32.641,-32.888,-32.849,-32.904,-32.687,-32.825,-0.008,0.986,-0.049,-0.122,-0.397,0.153,26.667,3297.000,1.000
-27.408,-27.240,-27.057,-27.071,-27.109,-27.234,-27.002,-26.983,-0.008,0.986,-0.052,-0.122,-0.427,0.214,26.667,3298.000,1.000
-30.083,-29.735,-29.910,-29.676,-29.738,-29.919,-29.710,-29.701,-0.009,0.989,-0.049,-0.153,-0.458,0.214,26.667,3299.000,1.000
-30.562,-30.236,-30.523,-30.364,-30.249,-30.482,-30.267,-30.414,-0.009,0.986,-0.051,-0.244,-0.458,0.305,26.667,3300.000,1.000
-23.092,-22.888,-22.917,-23.123,-22.755,-23.047,-22.747,-22.936,-0.010,0.985,-0.046,-0.275,-0.458,0.214,26.667,3301.000,1.000
-16.426,-16.265,-16.010,-16.438,-16.043,-16.319,-15.991,-15.999,-0.008,0.985,-0.049,-0.214,-0.458,0.183,26.667,3302.000,1.000
-16.753,-16.572,-16.273,-16.539,-16.480,-16.512,-16.309,-16.200,-0.009,0.985,-0.048,-0.183,-0.427,0.214,26.667,3303.000,1.000
-16.506,-16.372,-16.183,-16.159,-16.477,-16.143,-16.089,-16.135,-0.010,0.988,-0.050,-0.214,-0.427,0.305,26.667,3304.000,1.000
-9.707,-9.666,-9.625,-9.566,-9.833,-9.383,-9.404,-9.592,-0.009,0.986,-0.049,-0.153,-0.458,0.336,26.667,3305.000,1.000
-3.673,-3.683,-3.734,-3.920,-3.802,-3.555,-3.661,-3.698,-0.007,0.987,-0.050,-0.244,-0.488,0.305,26.667,3306.000,1.000
-4.859,-4.871,-4.934,-5.274,-4.983,-4.886,-5.135,-4.944,-0.010,0.985,-0.048,-0.153,-0.458,0.305,26.667,3307.000,1.000
-6.326,-6.278,-6.369,-6.564,-6.458,-6.286,-6.592,-6.424,-0.008,0.986,-0.050,-0.214,-0.488,0.336,26.667,3308.000,1.000
-0.401,-0.240,-0.358,-0.322,-0.439,-0.210,-0.396,-0.396,-0.008,0.985,-0.049,-0.153,-0.519,0.366,26.667,3309.000,1.000
7.420,7.594,7.531,7.662,7.500,7.611,7.541,7.585,-0.009,0.988,-0.050,-0.061,-0.519,0.122,26.667,3310.000,1.000
8.343,8.425,8.376,8.435,8.417,8.360,8.261,8.603,-0.009,0.985,-0.048,-0.214,-0.488,0.153,26.667,3311.000,1.000
5.866,5.950,5.803,5.698,5.884,5.757,5.602,6.147,-0.008,0.988,-0.049,-0.153,-0.458,0.183,26.667,3312.000,1.000
9.488,9.612,9.450,9.294,9.491,9.453,9.271,9.696,-0.009,0.986,-0.047,-0.153,-0.458,0.275,26.667,3313.000,1.000
17.186,17.238,17.191,17.149,17.169,17.356,17.068,17.243,-0.008,0.983,-0.048,-0.214,-0.488,0.244,26.667,3314.000,1.000
18.612,18.695,18.659,18.680,18.634,19.001,18.593,18.665,-0.008,0.985,-0.047,-0.183,-0.488,0.183,26.667,3315.000,1.000
14.458,14.836,14.647,14.663,14.710,15.007,14.663,14.726,-0.007,0.986,-0.049,-0.244,-0.519,0.153,26.667,3316.000,1.000
15.532,16.165,15.835,15.930,16.013,16.095,15.950,15.897,-0.007,0.985,-0.051,-0.183,-0.488,0.305,26.667,3317.000,1.000
22.506,23.091,22.738,22.886,22.933,22.892,22.895,22.643,-0.009,0.986,-0.049,-0.214,-0.580,0.183,26.667,3318.000,1.000
24.687,25.050,24.796,24.805,24.885,24.802,24.905,24.551,-0.010,0.987,-0.047,-0.153,-0.519,0.153,26.667,3319.000,1.000
20.124,20.275,20.190,20.047,20.160,20.060,20.211,19.954,-0.009,0.985,-0.050,-0.092,-0.397,0.122,26.667,3320.000,1.000
19.170,19.217,19.216,19.180,19.191,19.148,19.190,19.145,-0.009,0.986,-0.049,-0.153,-0.427,0.214,26.667,3321.000,1.000
25.014,25.128,25.032,25.225,25.101,25.193,25.030,25.134,-0.008,0.986,-0.048,-0.214,-0.427,0.244,26.667,3322.000,1.000
28.054,28.250,28.077,28.220,28.127,28.326,28.061,28.184,-0.006,0.987,-0.049,-0.061,-0.488,0.183,26.667,3323.000,1.000
24.578,24.589,24.654,24.451,24.550,24.669,24.424,24.537,-0.009,0.987,-0.050,-0.183,-0.427,0.244,26.667,3324.000,1.000
23.874,23.524,24.045,23.599,23.811,23.695,23.509,23.606,-0.007,0.987,-0.048,-0.122,-0.458,0.244,26.667,3325.000,1.000
30.249,29.782,30.529,30.168,30.274,29.948,29.959,29.881,-0.009,0.987,-0.047,-0.122,-0.549,0.214,26.667,3326.000,1.000
34.391,34.181,34.745,34.617,34.574,34.153,34.464,34.066,-0.011,0.987,-0.046,-0.092,-0.488,0.244,26.667,3327.000,1.000
30.912,30.946,31.194,31.208,31.138,30.805,31.133,30.601,-0.012,0.987,-0.049,-0.183,-0.427,0.214,26.667,3328.000,1.000
28.744,28.699,28.799,28.766,28.725,28.647,28.656,28.288,-0.009,0.987,-0.051,-0.153,-0.580,0.031,26.667,3329.000,1.000
34.113,33.864,34.034,33.799,33.752,33.913,33.735,33.505,-0.008,0.984,-0.049,-0.153,-0.488,0.183,26.667,3330.000,1.000
38.790,38.504,38.786,38.430,38.278,38.628,38.532,38.271,-0.009,0.985,-0.048,-0.183,-0.458,0.336,26.667,3331.000,1.000
36.008,35.886,36.113,35.859,35.595,36.068,36.057,35.813,-0.010,0.987,-0.046,-0.183,-0.397,0.275,26.667,3332.000,1.000
33.107,33.222,33.245,33.103,32.964,33.268,33.284,33.246,-0.007,0.988,-0.049,-0.275,-0.397,0.214,26.667,3333.000,1.000
37.854,38.087,37.984,37.810,37.929,37.864,37.926,38.131,-0.006,0.986,-0.047,-0.183,-0.427,0.244,26.667,3334.000,1.000
44.620,44.748,44.731,44.523,44.634,44.451,44.572,44.781,-0.008,0.987,-0.047,-0.122,-0.397,0.244,26.667,3335.000,1.000
44.529,44.419,44.639,44.457,44.321,44.312,44.460,44.458,-0.007,0.986,-0.049,-0.183,-0.488,0.305,26.667,3336.000,1.000
40.661,40.357,40.802,40.595,40.351,40.476,40.522,40.526,-0.007,0.987,-0.050,-0.214,-0.427,0.244,26.667,3337.000,1.000
41.541,41.238,41.725,41.494,41.303,41.473,41.251,41.582,-0.009,0.988,-0.046,-0.214,-0.397,0.183,26.667,3338.000,1.000
45.598,45.482,45.786,45.681,45.454,45.685,45.249,45.708,-0.007,0.989,-0.049,-0.214,-0.397,0.183,26.667,3339.000,1.000
45.206,45.223,45.310,45.345,45.038,45.239,44.950,45.122,-0.006,0.986,-0.047,-0.214,-0.488,0.244,26.667,3340.000,1.000
41.740,41.630,41.682,41.637,41.455,41.459,41.589,41.513,-0.006,0.987,-0.048,-0.153,-0.519,0.183,26.667,3341.000,1.000
43.037,42.730,42.879,42.640,42.746,42.529,42.889,42.924,-0.008,0.987,-0.047,-0.183,-0.549,0.153,26.667,3342.000,1.000
48.060,47.890,48.023,47.760,47.973,47.683,47.894,48.208,-0.007,0.986,-0.047,-0.153,-0.488,0.092,26.667,3343.000,1.000
47.729,47.994,47.923,47.807,47.812,47.671,47.640,48.089,-0.007,0.988,-0.046,-0.122,-0.427,0.153,26.667,3344.000,1.000
41.774,42.286,42.023,42.010,41.752,41.915,41.838,42.147,-0.006,0.986,-0.046,-0.183,-0.397,0.244,26.667,3345.000,1.000
40.244,40.585,40.308,40.294,39.995,40.331,40.447,40.407,-0.007,0.985,-0.047,-0.153,-0.427,0.214,26.667,3346.000,1.000
45.101,45.094,44.905,44.896,44.756,44.946,45.299,44.971,-0.005,0.986,-0.047,-0.214,-0.458,0.092,26.667,3347.000,1.000
46.041,45.840,45.724,45.770,45.740,45.696,46.086,45.768,-0.007,0.987,-0.048,-0.244,-0.488,0.183,26.667,3348.000,1.000
39.561,39.419,39.351,39.410,39.349,39.232,39.474,39.368,-0.007,0.987,-0.048,-0.183,-0.397,0.214,26.667,3349.000,1.000
35.595,35.555,35.532,35.531,35.437,35.273,35.432,35.542,-0.007,0.987,-0.047,-0.183,-0.458,0.153,26.667,3350.000,1.000
38.873,38.741,38.761,38.701,38.632,38.365,38.585,38.829,-0.009,0.986,-0.049,-0.153,-0.397,0.275,26.667,3351.000,1.000
40.149,39.855,39.860,39.809,39.762,39.550,39.829,39.998,-0.008,0.987,-0.046,-0.153,-0.458,0.214,26.667,3352.000,1.000
33.385,33.118,33.100,33.117,33.067,33.049,33.320,33.223,-0.007,0.985,-0.046,-0.183,-0.427,0.305,26.667,3353.000,1.000
26.626,26.542,26.603,26.733,26.616,26.638,26.892,26.650,-0.008,0.985,-0.048,-0.183,-0.488,0.214,26.667,3354.000,1.000
27.367,27.452,27.540,27.845,27.650,27.530,27.771,27.581,-0.009,0.985,-0.047,-0.214,-0.427,0.244,26.667,3355.000,1.000
29.940,30.076,29.987,30.530,30.377,30.149,30.335,30.153,-0.009,0.987,-0.046,-0.183,-0.458,0.183,26.667,3356.000,1.000
26.698,26.773,26.526,27.261,27.166,26.965,27.004,26.815,-0.008,0.985,-0.050,-0.092,-0.427,0.031,26.667,3357.000,1.000
21.429,21.470,21.310,22.019,21.810,21.722,21.593,21.530,-0.008,0.986,-0.049,-0.092,-0.366,0.092,26.667,3358.000,1.000
21.543,21.642,21.671,22.124,21.745,21.765,21.659,21.681,-0.010,0.985,-0.048,-0.092,-0.397,0.153,26.667,3359.000,1.000
24.205,24.345,24.376,24.590,24.205,24.281,24.384,24.347,-0.007,0.985,-0.052,-0.092,-0.519,0.183,26.667,3360.000,1.000
21.655,21.770,21.532,21.760,21.533,21.599,21.829,21.770,-0.008,0.984,-0.049,-0.122,-0.458,0.214,26.667,3361.000,1.000
15.801,15.957,15.411,15.816,15.754,15.764,15.934,15.909,-0.009,0.984,-0.049,-0.153,-0.427,0.183,26.667,3362.000,1.000
14.932,15.216,14.644,15.089,15.103,15.088,15.134,15.085,-0.009,0.986,-0.049,-0.061,-0.519,0.153,26.667,3363.000,1.000
18.333,18.633,18.319,18.563,18.654,18.606,18.582,18.504,-0.009,0.988,-0.050,-0.092,-0.427,0.122,26.667,3364.000,1.000
17.287,17.438,17.358,17.400,17.614,17.400,17.380,17.335,-0.009,0.987,-0.048,-0.061,-0.488,0.305,26.667,3365.000,1.000
11.425,11.444,11.425,11.483,11.691,11.295,11.263,11.273,-0.009,0.989,-0.050,-0.153,-0.519,0.214,26.667,3366.000,1.000
10.509,10.491,10.505,10.687,10.711,10.293,10.203,10.285,-0.008,0.987,-0.048,-0.183,-0.549,0.183,26.667,3367.000,1.000
16.622,16.592,16.696,16.904,16.802,16.437,16.332,16.538,-0.008,0.986,-0.048,-0.153,-0.519,0.153,26.667,3368.000,1.000
19.254,19.229,19.337,19.472,19.501,19.171,19.067,19.363,-0.009,0.986,-0.049,-0.122,-0.427,0.275,26.667,3369.000,1.000
14.228,14.226,14.187,14.261,14.576,14.319,14.171,14.373,-0.010,0.987,-0.049,-0.214,-0.275,0.275,26.667,3370.000,1.000
11.477,11.474,11.319,11.385,11.837,11.648,11.544,11.550,-0.010,0.987,-0.047,-0.275,-0.366,0.244,26.667,3371.000,1.000
16.474,16.403,16.326,16.375,16.649,16.458,16.543,16.467,-0.010,0.986,-0.050,-0.275,-0.488,0.244,26.667,3372.000,1.000
19.979,19.811,19.959,19.875,19.840,19.652,19.971,19.868,-0.007,0.986,-0.048,-0.244,-0.488,0.366,26.667,3373.000,1.000
15.220,15.104,15.368,15.148,14.984,14.834,15.372,15.080,-0.008,0.986,-0.044,-0.214,-0.519,0.336,26.667,3374.000,1.000
10.684,10.807,10.834,10.765,10.708,10.580,11.171,10.693,-0.009,0.986,-0.048,-0.153,-0.458,0.153,26.667,3375.000,1.000
14.412,14.706,14.350,14.639,14.687,14.601,14.917,14.558,-0.007,0.986,-0.047,-0.305,-0.427,0.183,26.667,3376.000,1.000
18.678,18.878,18.488,18.895,18.921,18.957,18.831,18.701,-0.007,0.986,-0.046,-0.122,-0.427,0.244,26.667,3377.000,1.000
14.257,14.198,14.143,14.313,14.306,14.526,14.091,13.966,-0.007,0.985,-0.047,-0.153,-0.366,0.366,26.667,3378.000,1.000
7.679,7.465,7.631,7.531,7.550,7.909,7.440,7.209,-0.008,0.986,-0.049,-0.183,-0.488,0.305,26.667,3379.000,1.000
8.773,8.704,8.720,8.571,8.589,8.959,8.645,8.474,-0.009,0.983,-0.046,-0.214,-0.519,0.336,26.667,3380.000,1.000
12.376,12.632,12.323,12.366,12.284,12.618,12.428,12.466,-0.010,0.986,-0.045,-0.092,-0.549,0.336,26.667,3381.000,1.000
8.507,8.905,8.374,8.732,8.514,8.880,8.637,8.893,-0.009,0.986,-0.047,-0.092,-0.610,0.305,26.667,3382.000,1.000
1.003,1.204,0.630,1.191,0.948,1.382,0.949,1.333,-0.010,0.987,-0.047,-0.092,-0.519,0.153,26.667,3383.000,1.000
-0.234,-0.294,-0.814,-0.371,-0.404,-0.032,-0.575,-0.299,-0.008,0.985,-0.047,-0.092,-0.580,0.031,26.667,3384.000,1.000
1.742,1.658,1.244,1.362,1.694,1.707,1.362,1.338,-0.006,0.986,-0.049,-0.183,-0.549,0.031,26.667,3385.000,1.000
-3.609,-3.550,-3.843,-3.916,-3.314,-3.830,-3.752,-3.966,-0.008,0.987,-0.048,-0.092,-0.488,0.275,26.667,3386.000,1.000
-14.042,-13.911,-14.166,-14.204,-13.573,-14.346,-13.992,-14.139,-0.009,0.988,-0.053,-0.153,-0.488,0.244,26.667,3387.000,1.000
-17.812,-17.704,-17.972,-17.925,-17.458,-17.996,-17.726,-17.692,-0.009,0.987,-0.048,0.000,-0.519,0.092,26.667,3388.000,1.000
-15.419,-15.360,-15.535,-15.479,-15.177,-15.329,-15.293,-15.148,-0.009,0.988,-0.050,-0.061,-0.549,0.061,26.667,3389.000,1.000
-19.064,-19.110,-19.071,-19.103,-18.857,-18.841,-18.885,-18.776,-0.011,0.983,-0.050,-0.122,-0.610,0.183,26.667,3390.000,1.000
-30.119,-30.278,-30.106,-30.244,-30.104,-30.013,-30.035,-30.025,-0.009,0.985,-0.052,-0.122,-0.488,0.244,26.667,3391.000,1.000
-36.129,-36.265,-36.228,-36.376,-36.445,-36.207,-36.299,-36.308,-0.008,0.986,-0.052,-0.122,-0.336,0.214,26.667,3392.000,1.000
-33.424,-33.490,-33.688,-33.784,-33.935,-33.682,-33.813,-33.765,-0.010,0.988,-0.054,-0.214,-0.366,0.214,26.667,3393.000,1.000
-34.077,-34.169,-34.392,-34.438,-34.515,-34.462,-34.428,-34.390,-0.008,0.987,-0.050,-0.275,-0.366,0.214,26.667,3394.000,1.000
-43.354,-43.458,-43.545,-43.456,-43.570,-43.603,-43.429,-43.540,-0.009,0.986,-0.052,-0.305,-0.458,0.244,26.667,3395.000,1.000
-49.313,-49.342,-49.314,-49.078,-49.363,-49.216,-49.207,-49.451,-0.009,0.987,-0.050,-0.275,-0.397,0.366,26.667,3396.000,1.000
-45.162,-45.173,-45.017,-44.854,-45.228,-44.929,-45.242,-45.343,-0.008,0.987,-0.050,-0.153,-0.397,0.336,26.667,3397.000,1.000
-42.103,-42.208,-41.927,-41.982,-42.261,-42.052,-42.520,-42.272,-0.007,0.986,-0.050,-0.153,-0.427,0.305,26.667,3398.000,1.000
-47.867,-48.083,-47.760,-47.971,-47.985,-47.940,-48.325,-47.955,-0.007,0.985,-0.049,-0.214,-0.427,0.275,26.667,3399.000,1.000
-52.375,-52.636,-52.283,-52.574,-52.337,-52.336,-52.526,-52.397,-0.008,0.986,-0.050,-0.244,-0.427,0.336,26.667,3400.000,1.000
-47.167,-47.309,-46.938,-47.285,-47.044,-46.967,-46.992,-47.072,-0.010,0.985,-0.049,-0.305,-0.488,0.153,26.667,3401.000,1.000
-40.800,-40.683,-40.416,-40.838,-40.765,-40.575,-40.571,-40.563,-0.009,0.986,-0.049,-0.305,-0.488,0.183,26.667,3402.000,1.000
-42.466,-42.202,-42.024,-42.546,-42.634,-42.358,-42.408,-42.294,-0.009,0.985,-0.047,-0.275,-0.519,0.183,26.667,3403.000,1.000
-45.290,-45.162,-44.856,-45.445,-45.621,-45.317,-45.321,-45.359,-0.009,0.986,-0.049,-0.214,-0.519,0.275,26.667,3404.000,1.000
-39.463,-39.618,-39.138,-39.683,-39.822,-39.525,-39.406,-39.650,-0.008,0.984,-0.047,-0.153,-0.458,0.275,26.667,3405.000,1.000
-30.478,-30.770,-30.363,-30.741,-30.729,-30.434,-30.344,-30.595,-0.007,0.988,-0.046,-0.275,-0.427,0.244,26.667,3406.000,1.000
-28.959,-29.116,-28.968,-29.205,-29.076,-28.751,-28.889,-29.025,-0.007,0.986,-0.045,-0.275,-0.397,0.305,26.667,3407.000,1.000
-31.217,-31.114,-31.170,-31.397,-31.309,-30.965,-31.301,-31.342,-0.008,0.987,-0.046,-0.122,-0.458,0.305,26.667,3408.000,1.000
-26.407,-26.131,-26.291,-26.519,-26.479,-26.299,-26.579,-26.567,-0.008,0.983,-0.044,-0.061,-0.458,0.275,26.667,3409.000,1.000
-16.743,-16.510,-16.698,-16.831,-16.667,-16.859,-16.922,-16.821,-0.008,0.986,-0.047,-0.092,-0.427,0.275,26.667,3410.000,1.000
-13.572,-13.651,-13.688,-13.696,-13.428,-13.861,-13.846,-13.529,-0.009,0.985,-0.045,-0.092,-0.366,0.244,26.667,3411.000,1.000
-16.535,-16.925,-16.734,-16.672,-16.498,-16.807,-16.909,-16.421,-0.008,0.986,-0.049,-0.153,-0.366,0.244,26.667,3412.000,1.000
-14.130,-14.481,-14.281,-14.199,-14.134,-14.157,-14.341,-14.039,-0.009,0.985,-0.047,-0.183,-0.488,0.214,26.667,3413.000,1.000
-4.866,-4.999,-4.960,-4.890,-4.807,-4.691,-4.793,-4.909,-0.008,0.986,-0.048,-0.183,-0.488,0.092,26.667,3414.000,1.000
-0.340,-0.438,-0.398,-0.421,-0.295,-0.264,-0.210,-0.538,-0.008,0.986,-0.047,-0.061,-0.488,0.061,26.667,3415.000,1.000
-4.342,-4.551,-4.319,-4.506,-4.438,-4.522,-4.367,-4.582,-0.009,0.989,-0.050,-0.061,-0.519,0.153,26.667,3416.000,1.000
-6.195,-6.460,-6.138,-6.401,-6.459,-6.480,-6.322,-6.319,-0.009,0.986,-0.052,-0.092,-0.488,0.275,26.667,3417.000,1.000
-0.974,-1.187,-1.035,-1.170,-1.323,-1.138,-1.020,-0.909,-0.009,0.988,-0.049,-0.122,-0.397,0.214,26.667,3418.000,1.000
1.373,1.293,1.227,1.229,1.107,1.400,1.503,1.589,-0.009,0.988,-0.049,-0.122,-0.336,0.214,26.667,3419.000,1.000
-4.205,-4.151,-4.181,-4.302,-4.217,-4.034,-3.955,-3.871,-0.007,0.987,-0.050,-0.183,-0.366,0.183,26.667,3420.000,1.000
-7.247,-7.096,-6.905,-7.301,-6.967,-6.948,-6.936,-6.776,-0.008,0.989,-0.046,-0.183,-0.458,0.122,26.667,3421.000,1.000
-1.156,-0.946,-0.695,-1.165,-0.758,-0.809,-0.837,-0.699,-0.008,0.987,-0.047,-0.153,-0.397,0.336,26.667,3422.000,1.000
4.270,4.407,4.463,4.241,4.521,4.461,4.444,4.387,-0.007,0.986,-0.051,-0.153,-0.458,0.366,26.667,3423.000,1.000
0.585,0.494,0.405,0.467,0.629,0.540,0.533,0.339,-0.008,0.987,-0.053,-0.153,-0.397,0.244,26.667,3424.000,1.000
-4.702,-4.992,-4.954,-4.884,-4.660,-4.791,-4.860,-4.967,-0.008,0.986,-0.049,-0.275,-0.458,0.183,26.667,3425.000,1.000
-2.688,-2.945,-2.697,-2.764,-2.501,-2.508,-2.779,-2.708,-0.009,0.984,-0.051,-0.275,-0.488,0.305,26.667,3426.000,1.000
1.144,1.155,1.430,1.394,1.359,1.682,1.247,1.420,-0.007,0.987,-0.050,-0.244,-0.427,0.244,26.667,3427.000,1.000
-2.098,-1.788,-1.694,-1.570,-1.999,-1.530,-1.792,-1.582,-0.007,0.983,-0.047,-0.183,-0.458,0.214,26.667,3428.000,1.000
-7.811,-7.372,-7.495,-7.340,-7.771,-7.542,-7.450,-7.236,-0.008,0.986,-0.049,-0.153,-0.427,0.244,26.667,3429.000,1.000
-5.775,-5.421,-5.517,-5.561,-5.689,-5.706,-5.493,-5.346,-0.009,0.985,-0.049,-0.183,-0.458,0.244,26.667,3430.000,1.000
0.958,1.158,1.352,1.043,1.036,1.078,1.199,1.200,-0.007,0.987,-0.052,-0.183,-0.488,0.183,26.667,3431.000,1.000
1.025,1.157,1.485,1.157,0.950,1.133,1.268,1.126,-0.008,0.983,-0.050,-0.153,-0.397,0.214,26.667,3432.000,1.000
-4.635,-4.575,-4.456,-4.477,-4.854,-4.805,-4.525,-4.650,-0.008,0.984,-0.051,-0.214,-0.397,0.031,26.667,3433.000,1.000
-4.606,-4.699,-4.725,-4.438,-4.733,-4.968,-4.633,-4.557,-0.007,0.984,-0.049,-0.183,-0.488,0.031,26.667,3434.000,1.000
1.984,1.838,1.997,2.311,2.140,1.901,2.165,2.381,-0.009,0.987,-0.049,-0.214,-0.427,0.122,26.667,3435.000,1.000
4.068,4.058,4.409,4.539,4.393,4.434,4.604,4.737,-0.008,0.985,-0.048,-0.214,-0.458,0.214,26.667,3436.000,1.000
-0.665,-0.523,-0.303,-0.353,-0.479,-0.260,-0.133,-0.164,-0.010,0.988,-0.049,-0.214,-0.397,0.244,26.667,3437.000,1.000
-1.498,-1.379,-1.480,-1.562,-1.677,-1.520,-1.342,-1.486,-0.009,0.986,-0.050,-0.122,-0.397,0.122,26.667,3438.000,1.000
5.003,4.898,4.656,4.608,4.466,4.550,4.746,4.596,-0.008,0.988,-0.051,-0.122,-0.397,0.153,26.667,3439.000,1.000
8.388,8.077,8.009,7.870,7.758,7.924,7.931,7.937,-0.010,0.987,-0.052,-0.153,-0.427,0.244,26.667,3440.000,1.000
3.873,3.633,3.761,3.502,3.468,3.714,3.485,3.693,-0.009,0.986,-0.048,-0.183,-0.397,0.275,26.667,3441.000,1.000
1.210,1.185,1.254,1.095,1.073,1.181,0.993,1.234,-0.007,0.988,-0.049,-0.153,-0.366,0.244,26.667,3442.000,1.000
6.647,6.621,6.570,6.639,6.640,6.457,6.500,6.656,-0.009,0.988,-0.047,-0.153,-0.488,0.275,26.667,3443.000,1.000
11.150,10.936,10.999,11.110,11.318,10.892,11.018,11.124,-0.008,0.987,-0.047,-0.153,-0.427,0.153,26.667,3444.000,1.000
6.657,6.401,6.719,6.620,7.102,6.578,6.643,6.697,-0.010,0.988,-0.048,-0.153,-0.397,0.244,26.667,3445.000,1.000
1.091,1.006,1.393,1.125,1.659,1.193,1.263,1.196,-0.009,0.987,-0.049,-0.092,-0.366,0.305,26.667,3446.000,1.000
3.770,3.839,3.989,3.905,4.232,3.951,4.059,3.856,-0.008,0.985,-0.047,-0.092,-0.427,0.153,26.667,3447.000,1.000
8.165,8.248,8.080,8.378,8.438,8.405,8.484,8.244,-0.007,0.985,-0.050,-0.061,-0.488,0.183,26.667,3448.000,1.000
4.534,4.543,4.225,4.656,4.577,4.723,4.738,4.677,-0.008,0.984,-0.051,-0.153,-0.488,0.275,26.667,3449.000,1.000
-1.904,-2.042,-2.311,-2.076,-2.047,-1.974,-2.032,-1.839,-0.008,0.987,-0.051,-0.122,-0.458,0.244,26.667,3450.000,1.000
-0.874,-1.182,-1.258,-1.290,-0.994,-1.147,-1.304,-1.072,-0.010,0.985,-0.048,-0.061,-0.458,0.305,26.667,3451.000,1.000
4.146,3.803,3.913,3.769,4.165,3.963,3.756,3.894,-0.010,0.986,-0.049,-0.122,-0.488,0.122,26.667,3452.000,1.000
2.320,2.082,2.179,2.205,2.318,2.273,2.181,2.358,-0.008,0.987,-0.051,-0.122,-0.519,0.092,26.667,3453.000,1.000
-4.888,-5.050,-5.065,-4.766,-5.062,-5.002,-4.892,-4.600,-0.009,0.988,-0.050,-0.061,-0.397,0.183,26.667,3454.000,1.000
-6.099,-6.268,-6.281,-5.972,-6.315,-6.286,-6.137,-5.889,-0.008,0.986,-0.049,-0.153,-0.427,0.305,26.667,3455.000,1.000
-0.278,-0.428,-0.418,-0.303,-0.348,-0.370,-0.401,-0.343,-0.009,0.987,-0.047,0.000,-0.488,0.275,26.667,3456.000,1.000
1.547,1.491,1.406,1.478,1.564,1.559,1.363,1.307,-0.010,0.988,-0.047,-0.092,-0.488,0.275,26.667,3457.000,1.000
-3.539,-3.461,-3.671,-3.455,-3.564,-3.506,-3.683,-3.652,-0.009,0.987,-0.047,-0.092,-0.458,0.244,26.667,3458.000,1.000
-4.844,-4.600,-4.901,-4.528,-4.847,-4.789,-4.878,-4.624,-0.009,0.985,-0.048,-0.061,-0.397,0.275,26.667,3459.000,1.000
2.178,2.618,2.192,2.642,2.314,2.255,2.156,2.636,-0.008,0.984,-0.048,-0.061,-0.458,0.305,26.667,3460.000,1.000
7.007,7.575,7.064,7.408,7.260,7.037,6.956,7.466,-0.009,0.985,-0.048,-0.092,-0.397,0.214,26.667,3461.000,1.000
3.523,4.057,3.685,3.696,3.772,3.482,3.648,3.819,-0.008,0.986,-0.046,-0.214,-0.397,0.122,26.667,3462.000,1.000
2.034,2.518,2.365,2.065,2.192,2.027,2.417,2.083,-0.008,0.988,-0.048,-0.244,-0.458,0.305,26.667,3463.000,1.000
9.999,10.543,10.356,10.089,10.080,10.114,10.317,9.819,-0.010,0.986,-0.043,-0.153,-0.488,0.305,26.667,3464.000,1.000
17.440,17.914,17.548,17.564,17.490,17.556,17.447,17.160,-0.008,0.986,-0.046,-0.244,-0.458,0.275,26.667,3465.000,1.000
15.475,15.616,15.335,15.502,15.509,15.499,15.396,15.239,-0.008,0.984,-0.048,-0.214,-0.488,0.397,26.667,3466.000,1.000
12.482,12.440,12.488,12.585,12.564,12.640,12.627,12.446,-0.007,0.986,-0.047,-0.183,-0.488,0.397,26.667,3467.000,1.000
17.275,17.471,17.685,17.743,17.482,17.728,17.663,17.509,-0.008,0.984,-0.046,-0.214,-0.397,0.244,26.667,3468.000,1.000
22.996,23.437,23.537,23.664,23.224,23.430,23.404,23.235,-0.009,0.984,-0.048,-0.122,-0.397,0.214,26.667,3469.000,1.000
22.048,22.324,22.292,22.485,22.093,22.122,22.212,21.917,-0.009,0.985,-0.047,-0.122,-0.488,0.275,26.667,3470.000,1.000
20.907,20.810,20.791,21.044,20.733,20.727,20.775,20.476,-0.011,0.987,-0.046,-0.122,-0.458,0.214,26.667,3471.000,1.000
26.736,26.449,26.481,26.722,26.422,26.463,26.507,26.361,-0.010,0.986,-0.043,-0.183,-0.458,0.275,26.667,3472.000,1.000
33.098,32.964,32.910,32.971,32.760,32.729,32.972,32.884,-0.006,0.988,-0.046,-0.122,-0.519,0.122,26.667,3473.000,1.000
31.526,31.803,31.510,31.484,31.449,31.278,31.574,31.386,-0.008,0.986,-0.046,-0.183,-0.366,0.275,26.667,3474.000,1.000
27.028,27.597,27.131,27.282,27.419,27.129,27.226,26.954,-0.009,0.988,-0.048,-0.153,-0.458,0.275,26.667,3475.000,1.000
29.054,29.447,29.141,29.339,29.650,29.227,29.287,29.060,-0.008,0.986,-0.045,-0.122,-0.366,0.244,26.667,3476.000,1.000
33.835,33.820,33.934,33.855,34.231,33.774,33.977,33.882,-0.010,0.986,-0.048,-0.122,-0.397,0.275,26.667,3477.000,1.000
30.493,30.370,30.733,30.465,30.672,30.438,30.543,30.534,-0.012,0.985,-0.044,-0.031,-0.366,0.366,26.667,3478.000,1.000
21.221,21.308,21.523,21.373,21.378,21.426,21.222,21.204,-0.010,0.985,-0.045,-0.092,-0.427,0.275,26.667,3479.000,1.000
18.375,18.558,18.548,18.493,18.567,18.590,18.298,18.272,-0.008,0.985,-0.046,-0.092,-0.397,0.214,26.667,3480.000,1.000
22.338,22.370,22.396,22.194,22.573,22.273,22.180,22.184,-0.009,0.986,-0.050,-0.183,-0.519,0.183,26.667,3481.000,1.000
21.142,21.093,21.258,20.931,21.500,21.008,21.070,21.045,-0.008,0.986,-0.047,-0.153,-0.488,0.183,26.667,3482.000,1.000
12.860,12.903,13.064,12.878,13.286,12.952,12.998,12.904,-0.007,0.986,-0.049,-0.153,-0.397,0.244,26.667,3483.000,1.000
8.657,8.702,8.753,8.778,8.847,8.735,8.804,8.691,-0.010,0.986,-0.049,-0.153,-0.427,0.214,26.667,3484.000,1.000
11.329,11.232,11.166,11.221,11.104,11.088,11.211,11.051,-0.009,0.986,-0.050,-0.092,-0.488,0.153,26.667,3485.000,1.000
10.228,9.992,9.871,9.853,9.777,9.882,9.882,9.605,-0.007,0.985,-0.052,-0.183,-0.458,0.061,26.667,3486.000,1.000
1.908,1.556,1.510,1.450,1.465,1.715,1.569,1.280,-0.008,0.986,-0.051,-0.244,-0.427,0.122,26.667,3487.000,1.000
-3.034,-3.473,-3.380,-3.459,-3.433,-3.178,-3.201,-3.374,-0.009,0.987,-0.051,-0.275,-0.427,0.122,26.667,3488.000,1.000
0.011,-0.431,-0.297,-0.333,-0.357,-0.213,-0.005,-0.082,-0.008,0.984,-0.048,-0.214,-0.458,0.275,26.667,3489.000,1.000
1.188,0.808,0.874,0.998,0.934,0.926,1.135,1.146,-0.009,0.987,-0.048,-0.183,-0.519,0.214,26.667,3490.000,1.000
-5.109,-5.415,-5.432,-5.121,-5.187,-5.375,-5.321,-5.203,-0.008,0.986,-0.045,-0.183,-0.427,0.244,26.667,3491.000,1.000
-10.201,-10.418,-10.528,-10.188,-10.249,-10.461,-10.491,-10.340,-0.008,0.989,-0.048,-0.275,-0.488,0.275,26.667,3492.000,1.000
-7.654,-7.820,-7.990,-7.859,-7.888,-7.849,-7.970,-7.860,-0.007,0.986,-0.048,-0.305,-0.458,0.214,26.667,3493.000,1.000
-4.944,-5.177,-5.280,-5.388,-5.361,-5.050,-5.398,-5.279,-0.008,0.987,-0.050,-0.214,-0.488,0.122,26.667,3494.000,1.000
-9.532,-9.786,-9.838,-9.948,-9.920,-9.600,-10.149,-9.879,-0.008,0.986,-0.049,-0.122,-0.427,0.214,26.667,3495.000,1.000
-15.551,-15.608,-15.787,-15.676,-15.747,-15.593,-16.122,-15.702,-0.010,0.986,-0.049,-0.183,-0.458,0.183,26.667,3496.000,1.000
-14.868,-14.742,-15.006,-14.660,-14.869,-14.823,-15.173,-14.839,-0.009,0.984,-0.045,-0.183,-0.458,0.244,26.667,3497.000,1.000
-11.791,-11.693,-11.853,-11.426,-11.660,-11.594,-11.772,-11.756,-0.008,0.987,-0.045,-0.153,-0.397,0.244,26.667,3498.000,1.000
-14.773,-14.684,-14.843,-14.460,-14.555,-14.385,-14.510,-14.838,-0.007,0.986,-0.045,-0.183,-0.458,0.244,26.667,3499.000,1.000
-20.494,-20.255,-20.599,-20.253,-20.274,-19.947,-20.171,-20.674,-0.006,0.987,-0.044,-0.275,-0.549,0.214,26.667,3500.000,1.000
-19.693,-19.453,-19.783,-19.459,-19.645,-19.217,-19.542,-19.957,-0.006,0.987,-0.045,-0.122,-0.458,0.214,26.667,3501.000,1.000
-14.403,-14.489,-14.490,-14.202,-14.612,-14.337,-14.563,-14.684,-0.009,0.988,-0.046,-0.153,-0.427,0.244,26.667,3502.000,1.000
-14.896,-15.267,-15.020,-14.717,-15.191,-15.268,-15.318,-15.128,-0.009,0.986,-0.045,-0.153,-0.427,0.244,26.667,3503.000,1.000
-21.251,-21.489,-21.352,-21.032,-21.333,-21.637,-21.673,-21.381,-0.007,0.987,-0.047,-0.214,-0.488,0.275,26.667,3504.000,1.000
-23.071,-22.976,-23.154,-22.880,-22.817,-23.147,-23.219,-23.113,-0.009,0.985,-0.045,-0.183,-0.397,0.275,26.667,3505.000,1.000
-18.589,-18.393,-18.751,-18.508,-18.198,-18.583,-18.470,-18.662,-0.009,0.986,-0.045,-0.031,-0.397,0.214,26.667,3506.000,1.000
-18.011,-17.934,-18.196,-17.974,-17.811,-18.289,-17.863,-18.170,-0.008,0.988,-0.048,-0.122,-0.366,0.275,26.667,3507.000,1.000
-24.019,-24.006,-24.092,-23.956,-24.119,-24.487,-24.020,-24.153,-0.008,0.988,-0.050,-0.061,-0.366,0.214,26.667,3508.000,1.000
-25.939,-25.866,-25.916,-25.873,-26.139,-26.155,-26.037,-25.948,-0.007,0.987,-0.049,-0.122,-0.488,0.214,26.667,3509.000,1.000
-19.892,-19.708,-19.813,-19.788,-19.919,-19.641,-19.828,-19.705,-0.009,0.984,-0.049,-0.183,-0.427,0.183,26.667,3510.000,1.000
-16.828,-16.596,-16.707,-16.643,-16.669,-16.429,-16.479,-16.384,-0.008,0.984,-0.050,-0.122,-0.519,0.183,26.667,3511.000,1.000
-22.057,-22.008,-22.045,-21.987,-21.992,-22.002,-21.719,-21.572,-0.010,0.985,-0.047,-0.031,-0.427,0.183,26.667,3512.000,1.000
-25.150,-25.397,-25.327,-25.400,-25.287,-25.504,-25.145,-24.944,-0.009,0.986,-0.051,-0.031,-0.488,0.244,26.667,3513.000,1.000
-19.373,-19.603,-19.519,-19.724,-19.443,-19.772,-19.497,-19.362,-0.009,0.986,-0.050,-0.092,-0.427,0.214,26.667,3514.000,1.000
-13.966,-13.873,-13.920,-14.084,-13.839,-14.156,-13.822,-13.887,-0.009,0.987,-0.051,-0.153,-0.427,0.275,26.667,3515.000,1.000
-17.168,-16.973,-17.115,-17.161,-17.099,-17.302,-16.859,-17.083,-0.009,0.986,-0.051,-0.244,-0.488,0.183,26.667,3516.000,1.000
-21.812,-21.860,-21.899,-21.993,-21.968,-22.108,-21.691,-21.858,-0.008,0.988,-0.050,-0.153,-0.580,0.214,26.667,3517.000,1.000
-18.895,-19.118,-18.973,-19.270,-19.133,-19.236,-18.950,-18.964,-0.009,0.987,-0.050,-0.092,-0.458,0.305,26.667,3518.000,1.000
-13.134,-13.225,-13.069,-13.453,-13.279,-13.250,-13.156,-13.135,-0.009,0.988,-0.052,-0.214,-0.427,0.092,26.667,3519.000,1.000
-12.972,-12.826,-12.866,-13.119,-12.995,-12.856,-12.976,-12.970,-0.010,0.986,-0.052,-0.214,-0.458,0.214,26.667,3520.000,1.000
-15.017,-14.798,-14.969,-15.069,-14.953,-14.850,-15.098,-14.975,-0.008,0.987,-0.051,-0.153,-0.488,0.244,26.667,3521.000,1.000
-10.978,-10.868,-10.908,-11.000,-10.854,-10.830,-11.077,-10.777,-0.009,0.986,-0.050,-0.122,-0.458,0.305,26.667,3522.000,1.000
-3.516,-3.577,-3.398,-3.561,-3.419,-3.374,-3.598,-3.232,-0.008,0.987,-0.050,-0.275,-0.458,0.275,26.667,3523.000,1.000
-1.990,-2.223,-1.931,-2.192,-2.084,-1.917,-2.150,-1.843,-0.007,0.987,-0.050,-0.183,-0.427,0.183,26.667,3524.000,1.000
-5.213,-5.490,-5.197,-5.576,-5.538,-5.242,-5.414,-5.268,-0.009,0.987,-0.049,-0.183,-0.488,0.244,26.667,3525.000,1.000
-2.821,-2.932,-2.714,-3.096,-3.199,-2.828,-2.878,-2.968,-0.009,0.985,-0.050,-0.122,-0.427,0.183,26.667,3526.000,1.000
5.578,5.584,5.768,5.522,5.286,5.696,5.676,5.464,-0.008,0.986,-0.050,-0.214,-0.488,0.183,26.667,3527.000,1.000
8.719,8.604,8.845,8.706,8.458,8.865,8.804,8.737,-0.007,0.984,-0.047,-0.366,-0.549,0.305,26.667,3528.000,1.000
4.301,4.074,4.327,4.244,4.063,4.380,4.316,4.453,-0.007,0.986,-0.051,-0.336,-0.610,0.275,26.667,3529.000,1.000
3.854,3.743,3.941,3.875,3.790,3.941,3.856,4.028,-0.005,0.987,-0.049,-0.275,-0.427,0.183,26.667,3530.000,1.000
11.723,11.891,12.044,11.800,11.894,11.865,11.798,11.881,-0.007,0.987,-0.050,-0.214,-0.397,0.244,26.667,3531.000,1.000
16.808,17.216,17.376,16.753,17.054,16.967,17.064,16.990,-0.006,0.987,-0.048,-0.214,-0.549,0.275,26.667,3532.000,1.000
12.712,13.092,13.362,12.489,12.803,12.878,13.101,12.851,-0.010,0.985,-0.046,-0.183,-0.549,0.214,26.667,3533.000,1.000
9.084,9.232,9.587,8.850,8.964,9.216,9.367,9.143,-0.008,0.985,-0.050,-0.214,-0.488,0.275,26.667,3534.000,1.000
13.057,13.083,13.308,12.931,12.902,13.109,13.149,13.156,-0.006,0.984,-0.047,-0.183,-0.458,0.183,26.667,3535.000,1.000
15.825,15.880,15.939,15.818,15.789,15.918,15.908,16.043,-0.005,0.986,-0.049,-0.183,-0.458,0.153,26.667,3536.000,1.000
9.899,9.907,10.077,9.975,9.946,10.167,10.126,10.184,-0.007,0.985,-0.052,-0.244,-0.427,0.122,26.667,3537.000,1.000
3.998,3.814,4.261,4.044,4.060,4.318,4.271,4.289,-0.006,0.988,-0.054,-0.153,-0.519,0.183,26.667,3538.000,1.000
6.978,6.623,7.142,6.873,7.027,7.147,7.062,7.225,-0.008,0.985,-0.051,-0.092,-0.488,0.244,26.667,3539.000,1.000
11.254,10.919,11.213,11.056,11.254,11.279,11.110,11.372,-0.008,0.987,-0.052,-0.122,-0.458,0.122,26.667,3540.000,1.000
6.667,6.454,6.529,6.542,6.666,6.635,6.549,6.655,-0.009,0.987,-0.048,-0.031,-0.488,0.153,26.667,3541.000,1.000
-1.276,-1.450,-1.391,-1.296,-1.188,-1.382,-1.179,-1.215,-0.009,0.988,-0.051,0.031,-0.488,0.214,26.667,3542.000,1.000
-1.867,-2.026,-1.950,-1.873,-1.740,-1.979,-1.656,-1.612,-0.010,0.985,-0.052,-0.092,-0.458,0.244,26.667,3543.000,1.000
1.516,1.487,1.480,1.483,1.608,1.615,1.718,1.772,-0.010,0.988,-0.052,-0.122,-0.488,0.244,26.667,3544.000,1.000
-1.779,-1.541,-1.674,-1.758,-1.672,-1.439,-1.540,-1.701,-0.011,0.988,-0.050,-0.092,-0.519,0.244,26.667,3545.000,1.000
-9.535,-9.024,-9.232,-9.343,-9.406,-9.173,-9.184,-9.519,-0.009,0.988,-0.052,-0.153,-0.488,0.305,26.667,3546.000,1.000
-10.142,-9.660,-9.779,-9.859,-10.142,-9.915,-9.741,-10.051,-0.010,0.987,-0.051,-0.153,-0.519,0.275,26.667,3547.000,1.000
-3.870,-3.781,-3.706,-3.771,-4.145,-3.832,-3.671,-3.821,-0.006,0.987,-0.051,-0.153,-0.427,0.244,26.667,3548.000,1.000
-2.744,-2.973,-2.889,-2.939,-3.195,-2.910,-2.942,-2.855,-0.008,0.984,-0.051,-0.122,-0.427,0.183,26.667,3549.000,1.000
-8.657,-8.831,-8.967,-8.934,-8.941,-8.866,-9.043,-8.787,-0.008,0.987,-0.050,-0.153,-0.427,0.092,26.667,3550.000,1.000
-10.241,-10.244,-10.474,-10.323,-10.183,-10.259,-10.458,-10.254,-0.009,0.985,-0.051,-0.214,-0.458,0.153,26.667,3551.000,1.000
-4.473,-4.528,-4.511,-4.273,-4.320,-4.315,-4.495,-4.460,-0.009,0.989,-0.051,-0.214,-0.427,0.244,26.667,3552.000,1.000
-2.399,-2.706,-2.384,-2.089,-2.432,-2.310,-2.447,-2.465,-0.009,0.989,-0.048,-0.275,-0.519,0.244,26.667,3553.000,1.000
-7.916,-8.376,-8.004,-7.702,-8.035,-8.011,-8.070,-7.995,-0.011,0.988,-0.048,-0.122,-0.488,0.122,26.667,3554.000,1.000
-10.165,-10.548,-10.289,-10.051,-10.150,-10.339,-10.332,-10.191,-0.008,0.987,-0.048,-0.214,-0.397,0.153,26.667,3555.000,1.000
-4.514,-4.740,-4.626,-4.466,-4.390,-4.640,-4.653,-4.549,-0.009,0.986,-0.049,-0.183,-0.366,0.244,26.667,3556.000,1.000
-1.538,-1.678,-1.760,-1.657,-1.446,-1.567,-1.709,-1.675,-0.010,0.986,-0.048,-0.214,-0.458,0.305,26.667,3557.000,1.000
-6.568,-6.696,-6.857,-6.890,-6.558,-6.512,-6.734,-6.812,-0.008,0.986,-0.049,-0.275,-0.427,0.275,26.667,3558.000,1.000
-9.348,-9.462,-9.419,-9.687,-9.384,-9.238,-9.319,-9.568,-0.007,0.985,-0.051,-0.153,-0.397,0.214,26.667,3559.000,1.000
-3.076,-3.100,-2.826,-3.195,-3.086,-2.961,-2.795,-3.071,-0.009,0.986,-0.047,-0.244,-0.427,0.244,26.667,3560.000,1.000
3.439,3.479,3.727,3.514,3.448,3.424,3.707,3.715,-0.008,0.986,-0.050,-0.275,-0.427,0.275,26.667,3561.000,1.000
1.816,1.672,1.785,1.758,1.699,1.521,1.795,2.113,-0.008,0.986,-0.048,-0.244,-0.458,0.275,26.667,3562.000,1.000
-1.770,-2.151,-2.112,-2.113,-2.055,-2.279,-2.010,-1.728,-0.010,0.987,-0.049,-0.214,-0.397,0.183,26.667,3563.000,1.000
1.687,1.489,1.418,1.364,1.426,1.217,1.452,1.506,-0.010,0.986,-0.046,-0.214,-0.397,0.153,26.667,3564.000,1.000
8.258,8.503,8.318,8.271,8.175,7.977,8.089,8.076,-0.005,0.986,-0.045,-0.214,-0.488,0.305,26.667,3565.000,1.000
8.483,8.856,8.714,8.749,8.510,8.381,8.366,8.352,-0.007,0.985,-0.044,-0.244,-0.427,0.305,26.667,3566.000,1.000
4.537,4.670,4.606,4.735,4.495,4.552,4.444,4.278,-0.007,0.987,-0.046,-0.122,-0.366,0.214,26.667,3567.000,1.000
6.068,5.965,5.804,5.985,5.867,6.100,5.893,5.632,-0.007,0.985,-0.043,-0.092,-0.336,0.214,26.667,3568.000,1.000
11.637,11.477,11.199,11.343,11.406,11.635,11.375,11.268,-0.007,0.986,-0.047,-0.153,-0.397,0.244,26.667,3569.000,1.000
10.738,10.617,10.441,10.500,10.665,10.777,10.568,10.638,-0.007,0.986,-0.046,-0.183,-0.427,0.183,26.667,3570.000,1.000
3.992,3.971,3.922,4.019,4.038,4.135,4.021,4.123,-0.010,0.986,-0.047,-0.092,-0.427,0.275,26.667,3571.000,1.000
2.963,3.180,2.955,3.261,3.003,3.207,3.129,3.245,-0.009,0.985,-0.050,-0.092,-0.458,0.214,26.667,3572.000,1.000
8.413,8.937,8.391,8.850,8.560,8.818,8.675,8.828,-0.008,0.987,-0.051,-0.092,-0.519,0.244,26.667,3573.000,1.000
8.275,8.929,8.308,8.685,8.674,8.844,8.658,8.773,-0.009,0.986,-0.048,-0.092,-0.427,0.305,26.667,3574.000,1.000
0.407,0.860,0.467,0.676,0.799,0.898,0.771,0.828,-0.008,0.989,-0.052,-0.061,-0.427,0.244,26.667,3575.000,1.000
-2.594,-2.500,-2.607,-2.447,-2.596,-2.434,-2.485,-2.394,-0.008,0.986,-0.048,-0.092,-0.427,0.183,26.667,3576.000,1.000
3.621,3.576,3.523,3.706,3.365,3.519,3.566,3.695,-0.010,0.988,-0.051,-0.031,-0.549,0.122,26.667,3577.000,1.000
7.237,7.349,7.113,7.276,7.229,7.176,7.379,7.391,-0.010,0.986,-0.050,-0.092,-0.458,0.214,26.667,3578.000,1.000
2.482,2.742,2.328,2.488,2.862,2.608,2.833,2.655,-0.010,0.988,-0.050,-0.122,-0.427,0.275,26.667,3579.000,1.000
-0.089,0.140,-0.363,-0.148,0.402,0.031,0.077,-0.107,-0.009,0.987,-0.050,-0.122,-0.427,0.244,26.667,3580.000,1.000
5.938,6.096,5.573,5.794,6.345,5.833,5.804,5.804,-0.009,0.987,-0.052,-0.122,-0.458,0.153,26.667,3581.000,1.000
11.030,11.238,10.834,10.962,11.380,10.841,11.000,11.062,-0.011,0.989,-0.047,-0.214,-0.458,0.153,26.667,3582.000,1.000
7.930,8.328,8.110,8.169,8.327,8.006,8.349,8.229,-0.009,0.987,-0.049,-0.244,-0.427,0.305,26.667,3583.000,1.000
5.162,5.663,5.517,5.609,5.624,5.472,5.808,5.489,-0.009,0.987,-0.048,-0.183,-0.427,0.336,26.667,3584.000,1.000
11.070,11.370,11.210,11.334,11.475,11.203,11.491,11.138,-0.008,0.986,-0.048,-0.153,-0.458,0.244,26.667,3585.000,1.000
18.662,18.658,18.568,18.612,18.912,18.484,18.767,18.499,-0.006,0.987,-0.048,-0.275,-0.397,0.244,26.667,3586.000,1.000
18.970,18.793,18.914,18.802,19.075,18.755,18.898,18.741,-0.007,0.985,-0.049,-0.244,-0.427,0.336,26.667,3587.000,1.000
16.865,16.554,16.896,16.702,16.859,16.764,16.650,16.543,-0.009,0.986,-0.049,-0.275,-0.488,0.275,26.667,3588.000,1.000
21.011,20.612,21.003,20.901,20.949,20.884,20.738,20.550,-0.008,0.984,-0.049,-0.275,-0.427,0.336,26.667,3589.000,1.000
28.209,27.877,28.199,28.238,28.132,27.956,28.111,27.749,-0.007,0.986,-0.051,-0.336,-0.519,0.366,26.667,3590.000,1.000
29.807,29.606,29.894,29.969,29.702,29.525,29.963,29.511,-0.007,0.986,-0.046,-0.244,-0.519,0.275,26.667,3591.000,1.000
27.124,27.025,27.232,27.347,27.053,26.941,27.323,27.000,-0.008,0.987,-0.049,-0.244,-0.488,0.153,26.667,3592.000,1.000
28.390,28.344,28.428,28.655,28.456,28.323,28.426,28.329,-0.007,0.985,-0.048,-0.214,-0.427,0.183,26.667,3593.000,1.000
33.388,33.265,33.474,33.666,33.530,33.323,33.280,33.300,-0.004,0.987,-0.048,-0.244,-0.336,0.305,26.667,3594.000,1.000
33.471,33.225,33.739,33.697,33.601,33.262,33.335,33.403,-0.009,0.985,-0.046,-0.244,-0.366,0.366,26.667,3595.000,1.000
27.665,27.480,28.009,27.785,27.794,27.313,27.558,27.694,-0.009,0.987,-0.045,-0.153,-0.427,0.183,26.667,3596.000,1.000
25.510,25.451,25.719,25.500,25.520,25.190,25.401,25.555,-0.007,0.985,-0.044,-0.153,-0.427,0.183,26.667,3597.000,1.000
29.336,29.155,29.323,29.185,29.093,29.159,29.138,29.262,-0.008,0.987,-0.048,0.000,-0.427,0.183,26.667,3598.000,1.000
28.615,28.224,28.515,28.348,28.360,28.559,28.328,28.493,-0.009,0.984,-0.046,-0.122,-0.458,0.183,26.667,3599.000,1.000
19.113,18.805,19.156,18.825,19.224,19.177,18.913,19.132,-0.007,0.985,-0.051,-0.061,-0.488,0.244,26.667,3600.000,1.000
11.483,11.427,11.689,11.291,11.911,11.652,11.507,11.680,-0.008,0.984,-0.049,-0.122,-0.427,0.183,26.667,3601.000,1.000
12.159,12.131,12.315,12.080,12.521,12.320,12.268,12.400,-0.009,0.986,-0.050,-0.153,-0.458,0.183,26.667,3602.000,1.000
11.936,11.716,11.905,11.866,12.027,11.967,11.887,12.067,-0.009,0.985,-0.050,-0.031,-0.397,0.153,26.667,3603.000,1.000
3.725,3.415,3.551,3.633,3.570,3.598,3.548,3.692,-0.008,0.987,-0.052,-0.092,-0.458,0.214,26.667,3604.000,1.000
-4.191,-4.315,-4.362,-4.156,-4.465,-4.305,-4.185,-4.258,-0.008,0.987,-0.051,-0.092,-0.427,0.214,26.667,3605.000,1.000
-4.543,-4.376,-4.516,-4.294,-4.688,-4.386,-4.239,-4.475,-0.008,0.986,-0.051,-0.061,-0.427,0.275,26.667,3606.000,1.000
-4.963,-4.724,-4.700,-4.670,-4.886,-4.642,-4.731,-4.790,-0.006,0.987,-0.051,-0.122,-0.366,0.214,26.667,3607.000,1.000
-12.581,-12.585,-12.300,-12.487,-12.543,-12.576,-12.810,-12.465,-0.007,0.983,-0.049,-0.214,-0.549,0.214,26.667,3608.000,1.000
-20.018,-20.239,-19.869,-20.113,-20.204,-20.455,-20.512,-20.005,-0.008,0.986,-0.052,-0.122,-0.458,0.244,26.667,3609.000,1.000
-19.406,-19.507,-19.284,-19.432,-19.641,-19.857,-19.686,-19.410,-0.007,0.985,-0.050,-0.092,-0.458,0.214,26.667,3610.000,1.000
-17.043,-16.896,-16.875,-16.845,-17.165,-17.265,-17.056,-17.068,-0.007,0.987,-0.051,-0.214,-0.488,0.214,26.667,3611.000,1.000
-21.640,-21.409,-21.486,-21.379,-21.718,-21.817,-21.699,-21.803,-0.006,0.985,-0.048,-0.244,-0.458,0.183,26.667,3612.000,1.000
-28.286,-28.070,-28.110,-28.213,-28.464,-28.501,-28.560,-28.572,-0.008,0.987,-0.049,-0.275,-0.427,0.183,26.667,3613.000,1.000
-27.594,-27.369,-27.290,-27.685,-27.954,-27.697,-27.980,-27.824,-0.008,0.986,-0.052,-0.275,-0.397,0.183,26.667,3614.000,1.000
-23.344,-23.072,-22.975,-23.317,-23.791,-23.226,-23.621,-23.392,-0.007,0.987,-0.049,-0.183,-0.397,0.305,26.667,3615.000,1.000
-25.747,-25.403,-25.527,-25.417,-26.079,-25.442,-25.786,-25.662,-0.008,0.986,-0.049,-0.275,-0.427,0.214,26.667,3616.000,1.000
-32.029,-31.740,-32.119,-31.580,-32.273,-31.743,-31.985,-31.998,-0.007,0.988,-0.050,-0.336,-0.549,0.061,26.667,3617.000,1.000
-30.661,-30.633,-31.051,-30.475,-31.028,-30.676,-30.777,-30.847,-0.009,0.986,-0.047,-0.275,-0.519,0.153,26.667,3618.000,1.000
-22.587,-22.777,-23.127,-22.786,-23.089,-22.965,-22.838,-22.950,-0.008,0.987,-0.047,-0.183,-0.397,0.244,26.667,3619.000,1.000
-20.626,-20.792,-21.144,-20.934,-21.125,-21.101,-20.847,-20.952,-0.010,0.988,-0.046,-0.214,-0.458,0.275,26.667,3620.000,1.000
-27.025,-27.038,-27.356,-27.117,-27.434,-27.251,-27.165,-27.126,-0.008,0.986,-0.047,-0.183,-0.458,0.153,26.667,3621.000,1.000
-29.160,-29.093,-29.271,-29.055,-29.395,-29.091,-29.246,-29.085,-0.007,0.986,-0.051,-0.244,-0.488,0.153,26.667,3622.000,1.000
-22.269,-22.237,-22.394,-22.278,-22.325,-22.171,-22.388,-22.286,-0.008,0.987,-0.050,-0.153,-0.519,0.122,26.667,3623.000,1.000
-18.119,-18.107,-18.476,-18.377,-18.147,-18.138,-18.370,-18.356,-0.010,0.987,-0.048,-0.153,-0.488,0.183,26.667,3624.000,1.000
-22.863,-22.790,-23.296,-23.137,-22.906,-22.829,-23.135,-23.102,-0.007,0.985,-0.047,-0.061,-0.458,0.244,26.667,3625.000,1.000
-25.537,-25.451,-25.769,-25.628,-25.500,-25.350,-25.591,-25.580,-0.010,0.987,-0.048,-0.031,-0.427,0.275,26.667,3626.000,1.000
-18.777,-18.790,-18.851,-18.786,-18.716,-18.623,-18.619,-18.750,-0.010,0.986,-0.044,-0.183,-0.458,0.275,26.667,3627.000,1.000
-12.528,-12.625,-12.690,-12.620,-12.584,-12.552,-12.401,-12.676,-0.010,0.988,-0.047,-0.122,-0.427,0.366,26.667,3628.000,1.000
-15.561,-15.565,-15.760,-15.626,-15.652,-15.606,-15.497,-15.896,-0.008,0.986,-0.046,-0.092,-0.366,0.366,26.667,3629.000,1.000
-19.508,-19.256,-19.384,-19.247,-19.425,-19.326,-19.278,-19.764,-0.007,0.986,-0.048,-0.031,-0.366,0.214,26.667,3630.000,1.000
-14.990,-14.511,-14.467,-14.366,-14.711,-14.554,-14.553,-14.955,-0.006,0.985,-0.048,-0.061,-0.488,0.366,26.667,3631.000,1.000
-9.197,-8.679,-8.651,-8.521,-8.830,-8.690,-8.797,-8.961,-0.008,0.988,-0.047,-0.122,-0.488,0.336,26.667,3632.000,1.000
-11.742,-11.342,-11.454,-11.245,-11.277,-11.292,-11.517,-11.469,-0.008,0.986,-0.047,-0.122,-0.397,0.275,26.667,3633.000,1.000
-16.259,-16.036,-16.187,-15.974,-15.694,-15.906,-16.168,-15.963,-0.008,0.988,-0.047,-0.183,-0.427,0.214,26.667,3634.000,1.000
-12.770,-12.727,-12.811,-12.730,-12.330,-12.618,-12.832,-12.477,-0.008,0.988,-0.047,-0.092,-0.427,0.305,26.667,3635.000,1.000
-6.582,-6.623,-6.651,-6.771,-6.509,-6.691,-6.759,-6.365,-0.008,0.988,-0.050,-0.183,-0.366,0.366,26.667,3636.000,1.000
-8.288,-8.220,-8.289,-8.564,-8.476,-8.507,-8.382,-8.116,-0.007,0.987,-0.048,-0.183,-0.397,0.214,26.667,3637.000,1.000
-14.579,-14.334,-14.505,-14.804,-14.674,-14.696,-14.569,-14.406,-0.007,0.988,-0.050,-0.122,-0.336,0.183,26.667,3638.000,1.000
-15.072,-14.805,-15.000,-15.130,-14.927,-15.011,-15.138,-14.919,-0.008,0.986,-0.050,-0.122,-0.488,0.153,26.667,3639.000,1.000
-11.380,-11.295,-11.376,-11.227,-11.211,-11.267,-11.551,-11.276,-0.009,0.988,-0.052,-0.092,-0.549,0.275,26.667,3640.000,1.000
-13.788,-13.915,-13.829,-13.609,-13.786,-13.819,-13.916,-13.761,-0.009,0.987,-0.050,-0.031,-0.458,0.214,26.667,3641.000,1.000
-22.038,-22.211,-22.014,-22.080,-22.038,-22.274,-22.020,-22.079,-0.009,0.986,-0.048,-0.122,-0.366,0.153,26.667,3642.000,1.000
-24.930,-24.958,-24.757,-25.143,-24.659,-25.231,-24.790,-24.981,-0.007,0.987,-0.050,-0.153,-0.488,0.305,26.667,3643.000,1.000
-20.072,-19.914,-19.797,-20.209,-19.621,-20.199,-19.879,-20.167,-0.008,0.987,-0.053,-0.153,-0.488,0.214,26.667,3644.000,1.000
-18.362,-18.176,-18.107,-18.344,-18.125,-18.226,-18.129,-18.558,-0.008,0.986,-0.050,-0.153,-0.427,0.275,26.667,3645.000,1.000
-24.080,-24.120,-23.963,-24.068,-24.241,-23.916,-23.858,-24.273,-0.009,0.987,-0.050,-0.183,-0.336,0.153,26.667,3646.000,1.000
-26.920,-27.254,-26.982,-27.082,-27.225,-26.962,-26.852,-26.977,-0.011,0.987,-0.049,-0.092,-0.427,0.183,26.667,3647.000,1.000
-21.262,-21.631,-21.329,-21.540,-21.333,-21.363,-21.351,-21.212,-0.010,0.985,-0.051,-0.214,-0.427,0.183,26.667,3648.000,1.000
-16.566,-16.648,-16.379,-16.732,-16.287,-16.484,-16.610,-16.525,-0.010,0.987,-0.051,-0.183,-0.519,0.183,26.667,3649.000,1.000
-19.211,-19.040,-18.883,-19.228,-18.881,-19.044,-19.155,-19.271,-0.009,0.988,-0.048,-0.183,-0.488,0.305,26.667,3650.000,1.000
-20.662,-20.558,-20.561,-20.715,-20.624,-20.609,-20.662,-20.835,-0.009,0.987,-0.049,-0.183,-0.519,0.183,26.667,3651.000,1.000
-14.283,-14.267,-14.371,-14.355,-14.354,-14.246,-14.317,-14.420,-0.009,0.986,-0.050,-0.214,-0.458,0.214,26.667,3652.000,1.000
-7.902,-7.625,-7.795,-7.768,-7.620,-7.677,-7.778,-7.764,-0.009,0.986,-0.048,-0.244,-0.427,0.305,26.667,3653.000,1.000
-9.091,-8.486,-8.685,-8.730,-8.476,-8.713,-8.786,-8.598,-0.008,0.986,-0.046,-0.183,-0.366,0.305,26.667,3654.000,1.000
-11.959,-11.409,-11.523,-11.580,-11.460,-11.610,-11.612,-11.288,-0.007,0.986,-0.047,-0.153,-0.397,0.275,26.667,3655.000,1.000
-8.388,-8.138,-8.142,-8.208,-8.200,-8.148,-8.097,-7.790,-0.007,0.986,-0.046,-0.122,-0.427,0.275,26.667,3656.000,1.000
-2.021,-1.914,-1.912,-2.110,-1.954,-1.846,-1.781,-1.609,-0.008,0.986,-0.046,-0.214,-0.427,0.305,26.667,3657.000,1.000
-0.375,-0.325,-0.338,-0.586,-0.355,-0.262,-0.208,-0.140,-0.009,0.987,-0.045,-0.244,-0.427,0.244,26.667,3658.000,1.000
-0.254,-0.469,-0.427,-0.437,-0.444,-0.247,-0.294,-0.200,-0.006,0.987,-0.047,-0.153,-0.488,0.275,26.667,3659.000,1.000
5.861,5.356,5.448,5.645,5.486,5.840,5.614,5.768,-0.006,0.984,-0.050,-0.275,-0.397,0.305,26.667,3660.000,1.000
14.691,14.197,14.267,14.347,14.359,14.763,14.441,14.636,-0.006,0.986,-0.049,-0.183,-0.305,0.244,26.667,3661.000,1.000
17.635,17.283,17.316,17.215,17.402,17.693,17.452,17.724,-0.006,0.986,-0.050,-0.153,-0.427,0.214,26.667,3662.000,1.000
16.527,16.173,16.230,16.116,16.313,16.405,16.347,16.572,-0.006,0.987,-0.048,-0.122,-0.397,0.183,26.667,3663.000,1.000
20.283,19.902,19.980,19.886,20.085,20.124,20.158,20.106,-0.009,0.985,-0.043,-0.183,-0.336,0.244,26.667,3664.000,1.000
28.427,28.120,28.141,28.002,28.225,28.475,28.342,28.154,-0.007,0.986,-0.048,-0.122,-0.458,0.214,26.667,3665.000,1.000
31.394,31.198,31.137,30.943,31.143,31.632,31.153,31.258,-0.008,0.983,-0.050,-0.183,-0.427,0.214,26.667,3666.000,1.000
28.251,28.257,28.084,27.852,28.045,28.518,27.858,28.275,-0.006,0.985,-0.051,-0.092,-0.488,0.153,26.667,3667.000,1.000
29.594,29.837,29.510,29.317,29.513,29.735,29.366,29.654,-0.009,0.984,-0.047,-0.122,-0.458,0.031,26.667,3668.000,1.000
38.120,38.308,38.001,37.949,38.022,38.030,38.217,38.170,-0.008,0.986,-0.046,-0.061,-0.427,0.031,26.667,3669.000,1.000
42.503,42.329,42.327,42.380,42.325,42.315,42.782,42.553,-0.008,0.985,-0.048,-0.031,-0.458,-0.031,26.667,3670.000,1.000
38.090,37.739,37.966,38.043,38.116,38.118,38.436,38.164,-0.007,0.986,-0.051,-0.122,-0.488,0.092,26.667,3671.000,1.000
36.000,35.928,36.032,36.112,36.464,36.321,36.361,36.195,-0.008,0.987,-0.052,-0.153,-0.458,0.153,26.667,3672.000,1.000
42.237,42.433,42.398,42.424,42.867,42.534,42.442,42.533,-0.008,0.988,-0.052,-0.092,-0.488,0.214,26.667,3673.000,1.000
46.126,46.095,46.198,46.162,46.409,46.063,46.024,46.254,-0.009,0.988,-0.052,-0.153,-0.458,0.244,26.667,3674.000,1.000
40.160,39.734,40.035,40.033,39.992,39.832,39.843,40.005,-0.008,0.987,-0.047,-0.153,-0.519,0.153,26.667,3675.000,1.000
33.622,33.217,33.554,33.567,33.393,33.412,33.360,33.471,-0.008,0.986,-0.051,-0.153,-0.488,0.244,26.667,3676.000,1.000
35.340,35.276,35.513,35.503,35.376,35.389,35.359,35.456,-0.007,0.986,-0.049,-0.214,-0.366,0.214,26.667,3677.000,1.000
38.596,38.694,38.774,38.848,38.844,38.687,38.906,38.865,-0.010,0.988,-0.052,-0.092,-0.397,0.214,26.667,3678.000,1.000
34.422,34.420,34.369,34.507,34.711,34.380,34.802,34.605,-0.008,0.985,-0.051,-0.183,-0.336,0.336,26.667,3679.000,1.000
27.439,27.374,27.285,27.277,27.745,27.381,27.668,27.475,-0.008,0.982,-0.049,-0.183,-0.427,0.244,26.667,3680.000,1.000
26.613,26.585,26.512,26.357,26.866,26.678,26.621,26.545,-0.009,0.982,-0.047,-0.214,-0.488,0.305,26.667,3681.000,1.000
28.850,28.772,28.651,28.641,28.821,28.937,28.617,28.731,-0.008,0.985,-0.047,-0.214,-0.336,0.275,26.667,3682.000,1.000
25.166,24.937,24.728,24.976,24.810,25.119,24.757,25.072,-0.009,0.985,-0.045,-0.244,-0.427,0.183,26.667,3683.000,1.000
17.838,17.547,17.392,17.647,17.437,17.729,17.541,17.808,-0.009,0.987,-0.047,-0.275,-0.488,0.214,26.667,3684.000,1.000
16.469,16.303,16.322,16.418,16.305,16.470,16.502,16.459,-0.009,0.986,-0.046,-0.244,-0.458,0.305,26.667,3685.000,1.000
20.136,20.194,20.280,20.347,20.254,20.253,20.348,20.111,-0.007,0.988,-0.049,-0.244,-0.488,0.244,26.667,3686.000,1.000
19.111,19.327,19.333,19.480,19.313,19.213,19.291,19.049,-0.007,0.985,-0.045,-0.214,-0.366,0.244,26.667,3687.000,1.000
13.160,13.330,13.288,13.494,13.194,13.087,13.344,13.014,-0.006,0.985,-0.049,-0.183,-0.366,0.214,26.667,3688.000,1.000
12.143,12.073,12.171,12.403,12.025,11.827,12.447,11.949,-0.007,0.984,-0.047,-0.214,-0.488,0.122,26.667,3689.000,1.000
16.830,16.539,16.941,17.119,16.803,16.527,17.240,16.696,-0.008,0.986,-0.048,-0.183,-0.519,0.183,26.667,3690.000,1.000
16.057,15.784,16.355,16.385,16.156,16.125,16.444,15.963,-0.007,0.986,-0.048,-0.214,-0.397,0.153,26.667,3691.000,1.000
7.861,7.764,8.125,8.075,7.799,8.161,8.063,7.668,-0.008,0.985,-0.047,-0.244,-0.549,0.153,26.667,3692.000,1.000
4.795,4.800,4.833,4.875,4.468,4.870,4.799,4.536,-0.010,0.988,-0.050,-0.183,-0.488,0.153,26.667,3693.000,1.000
10.874,10.936,10.902,11.025,10.665,10.736,10.915,10.800,-0.008,0.989,-0.047,-0.122,-0.427,0.092,26.667,3694.000,1.000
13.613,13.775,13.893,13.879,13.789,13.610,13.857,13.780,-0.008,0.987,-0.048,-0.122,-0.458,0.122,26.667,3695.000,1.000
7.414,7.560,7.759,7.531,7.615,7.471,7.645,7.519,-0.009,0.985,-0.049,-0.061,-0.458,0.214,26.667,3696.000,1.000
3.539,3.569,3.582,3.387,3.389,3.373,3.497,3.362,-0.009,0.986,-0.049,-0.031,-0.519,0.183,26.667,3697.000,1.000
7.947,8.040,7.738,7.832,7.711,7.740,7.828,7.682,-0.010,0.986,-0.048,-0.061,-0.488,0.122,26.667,3698.000,1.000
9.987,10.288,9.896,10.206,10.099,10.052,10.170,9.961,-0.010,0.984,-0.049,-0.092,-0.519,0.183,26.667,3699.000,1.000
2.696,3.069,2.888,3.152,3.075,2.936,3.162,2.983,-0.010,0.985,-0.050,0.000,-0.519,0.183,26.667,3700.000,1.000
-4.145,-3.916,-3.849,-3.747,-3.911,-3.966,-3.800,-3.787,-0.010,0.987,-0.050,-0.061,-0.366,0.153,26.667,3701.000,1.000
-1.850,-1.830,-1.736,-1.723,-1.907,-1.809,-1.940,-1.764,-0.010,0.987,-0.045,-0.153,-0.458,0.214,26.667,3702.000,1.000
1.936,1.840,1.765,1.775,1.841,1.830,1.541,1.665,-0.010,0.988,-0.051,-0.275,-0.427,0.244,26.667,3703.000,1.000
-2.139,-2.223,-2.404,-2.362,-2.032,-2.311,-2.423,-2.505,-0.010,0.987,-0.051,-0.153,-0.519,0.244,26.667,3704.000,1.000
